Data from HighRes_H2_15_09_11_07_2024_HR4C61891__93__15-11-05-702.txt Node

Date: Thu Nov 07 15:11:05 EST 2024
User: crc00042
Spectrometer: HR4C6189
Trigger mode: 4
Integration Time (sec): 1.000000E-1
Scans to average: 1
Electric dark correction enabled: true
Nonlinearity correction enabled: false
Boxcar width: 0
XAxis mode: Wavelengths
Number of Pixels in Spectrum: 3648
>>>>>Begin Spectral Data<<<<<
639.567	-54.69
639.602	-54.69
639.636	-54.69
639.67	-40.69
639.704	-28.69
639.738	-12.69
639.773	16.31
639.807	-10.69
639.841	-8.69
639.875	16.31
639.909	0.31
639.943	-5.69
639.978	-9.69
640.012	-0.69
640.046	20.31
640.08	5.31
640.114	0.31
640.148	-10.69
640.182	-9.69
640.217	-12.69
640.251	4.31
640.285	10.31
640.319	-22.69
640.353	0.31
640.387	-5.69
640.421	-14.69
640.455	-3.69
640.49	0.31
640.524	1.31
640.558	5.31
640.592	-5.69
640.626	1.31
640.66	6.31
640.694	6.31
640.728	6.31
640.762	16.31
640.796	15.31
640.83	11.31
640.865	-18.69
640.899	-0.69
640.933	-7.69
640.967	0.31
641.001	-16.69
641.035	-4.69
641.069	0.31
641.103	3.31
641.137	9.31
641.171	-10.69
641.205	-2.69
641.239	0.31
641.273	22.31
641.307	3.31
641.341	-15.69
641.375	12.31
641.409	-12.69
641.443	4.31
641.477	11.31
641.511	6.31
641.545	5.31
641.579	-3.69
641.614	7.31
641.648	6.31
641.682	0.31
641.716	5.31
641.75	7.31
641.784	-4.69
641.818	-20.69
641.852	-1.69
641.886	2.31
641.919	27.31
641.953	-1.69
641.987	-11.69
642.021	-0.69
642.055	-3.69
642.089	-8.69
642.123	-26.69
642.157	-20.69
642.191	-10.69
642.225	0.31
642.259	1.31
642.293	12.31
642.327	1.31
642.361	2.31
642.395	14.31
642.429	29.31
642.463	5.31
642.497	11.31
642.531	-0.69
642.565	4.31
642.599	25.31
642.633	-31.69
642.666	12.31
642.7	1.31
642.734	13.31
642.768	-7.69
642.802	2.31
642.836	1.31
642.87	8.31
642.904	-8.69
642.938	8.31
642.972	1.31
643.005	-3.69
643.039	-8.69
643.073	2.31
643.107	4.31
643.141	0.31
643.175	4.31
643.209	-8.69
643.243	6.31
643.276	19.31
643.31	5.31
643.344	1.31
643.378	-8.69
643.412	-2.69
643.446	12.31
643.48	-5.69
643.513	4.31
643.547	6.31
643.581	4.31
643.615	12.31
643.649	1.31
643.683	22.31
643.716	-4.69
643.75	-14.69
643.784	-7.69
643.818	-0.69
643.852	-13.69
643.886	-6.69
643.919	5.31
643.953	-6.69
643.987	-5.69
644.021	18.31
644.055	8.31
644.088	-7.69
644.122	0.31
644.156	-11.69
644.19	-6.69
644.224	6.31
644.257	3.31
644.291	-7.69
644.325	-1.69
644.359	11.31
644.392	15.31
644.426	7.31
644.46	5.31
644.494	-16.69
644.527	-3.69
644.561	-1.69
644.595	5.31
644.629	17.31
644.662	7.31
644.696	24.31
644.73	14.31
644.764	8.31
644.797	4.31
644.831	3.31
644.865	16.31
644.899	2.31
644.932	16.31
644.966	-8.69
645	2.31
645.033	8.31
645.067	6.31
645.101	15.31
645.135	-4.69
645.168	-1.69
645.202	-6.69
645.236	11.31
645.269	5.31
645.303	-16.69
645.337	0.31
645.37	-5.69
645.404	2.31
645.438	2.31
645.471	11.31
645.505	20.31
645.539	2.31
645.572	-8.69
645.606	-0.69
645.64	2.31
645.673	9.31
645.707	13.31
645.741	2.31
645.774	-11.69
645.808	6.31
645.842	-14.69
645.875	2.31
645.909	4.31
645.943	-0.69
645.976	7.31
646.01	10.31
646.043	11.31
646.077	6.31
646.111	11.31
646.144	21.31
646.178	5.31
646.212	-11.69
646.245	-11.69
646.279	-6.69
646.312	-4.69
646.346	16.31
646.38	-1.69
646.413	-11.69
646.447	11.31
646.48	6.31
646.514	14.31
646.547	-14.69
646.581	-14.69
646.615	-0.69
646.648	-10.69
646.682	-1.69
646.715	1.31
646.749	6.31
646.782	13.31
646.816	-1.69
646.85	10.31
646.883	2.31
646.917	7.31
646.95	1.31
646.984	0.31
647.017	-10.69
647.051	-2.69
647.084	4.31
647.118	3.31
647.151	4.31
647.185	6.31
647.218	-29.69
647.252	-5.69
647.285	-11.69
647.319	-9.69
647.353	6.31
647.386	11.31
647.42	8.31
647.453	-2.69
647.487	-8.69
647.52	-1.69
647.553	-9.69
647.587	1.31
647.62	1.31
647.654	18.31
647.687	2.31
647.721	19.31
647.754	6.31
647.788	2.31
647.821	6.31
647.855	13.31
647.888	12.31
647.922	-4.69
647.955	6.31
647.989	-0.69
648.022	0.31
648.055	17.31
648.089	4.31
648.122	32.31
648.156	-2.69
648.189	-0.69
648.223	4.31
648.256	7.31
648.29	-0.69
648.323	1.31
648.356	-11.69
648.39	7.31
648.423	6.31
648.457	-4.69
648.49	4.31
648.523	-1.69
648.557	-7.69
648.59	11.31
648.624	-0.69
648.657	6.31
648.69	18.31
648.724	3.31
648.757	6.31
648.791	14.31
648.824	16.31
648.857	21.31
648.891	8.31
648.924	-1.69
648.957	15.31
648.991	-1.69
649.024	2.31
649.057	-3.69
649.091	-4.69
649.124	11.31
649.158	-0.69
649.191	16.31
649.224	7.31
649.258	10.31
649.291	17.31
649.324	7.31
649.358	10.31
649.391	12.31
649.424	15.31
649.458	4.31
649.491	0.31
649.524	2.31
649.557	0.31
649.591	-23.69
649.624	13.31
649.657	-17.69
649.691	4.31
649.724	-7.69
649.757	2.31
649.791	-5.69
649.824	17.31
649.857	5.31
649.89	11.31
649.924	-8.69
649.957	-24.69
649.99	-8.69
650.023	-9.69
650.057	-3.69
650.09	7.31
650.123	0.31
650.157	2.31
650.19	11.31
650.223	-3.69
650.256	1.31
650.29	-8.69
650.323	0.31
650.356	4.31
650.389	-6.69
650.423	-4.69
650.456	6.31
650.489	0.31
650.522	6.31
650.555	27.31
650.589	14.31
650.622	2.31
650.655	24.31
650.688	8.31
650.721	-1.69
650.755	3.31
650.788	9.31
650.821	1.31
650.854	-0.69
650.887	11.31
650.921	7.31
650.954	-5.69
650.987	3.31
651.02	5.31
651.053	-2.69
651.087	-2.69
651.12	17.31
651.153	0.31
651.186	-2.69
651.219	-0.69
651.252	-0.69
651.286	1.31
651.319	-13.69
651.352	7.31
651.385	10.31
651.418	3.31
651.451	0.31
651.484	-3.69
651.518	-8.69
651.551	24.31
651.584	-7.69
651.617	8.31
651.65	3.31
651.683	5.31
651.716	-12.69
651.749	-28.69
651.783	-12.69
651.816	-6.69
651.849	3.31
651.882	-4.69
651.915	1.31
651.948	5.31
651.981	-8.69
652.014	-7.69
652.047	6.31
652.08	-13.69
652.114	-1.69
652.147	-13.69
652.18	7.31
652.213	33.31
652.246	5.31
652.279	-17.69
652.312	7.31
652.345	7.31
652.378	15.31
652.411	5.31
652.444	-2.69
652.477	-1.69
652.51	-0.69
652.543	-22.69
652.576	0.31
652.609	-15.69
652.642	-0.69
652.675	18.31
652.709	-5.69
652.742	-8.69
652.775	6.31
652.808	11.31
652.841	3.31
652.874	-6.69
652.907	1.31
652.94	-14.69
652.973	0.31
653.006	-10.69
653.039	1.31
653.072	2.31
653.105	-8.69
653.138	-5.69
653.171	-3.69
653.204	-8.69
653.237	12.31
653.27	-11.69
653.303	5.31
653.336	3.31
653.368	-5.69
653.401	-4.69
653.434	-6.69
653.467	11.31
653.5	-24.69
653.533	-12.69
653.566	3.31
653.599	-10.69
653.632	2.31
653.665	3.31
653.698	-7.69
653.731	-6.69
653.764	1.31
653.797	0.31
653.83	2.31
653.863	9.31
653.896	-5.69
653.929	-5.69
653.961	0.31
653.994	1.31
654.027	-8.69
654.06	22.31
654.093	17.31
654.126	4.31
654.159	-11.69
654.192	-18.69
654.225	-4.69
654.258	-20.69
654.29	-1.69
654.323	1.31
654.356	1.31
654.389	6.31
654.422	0.31
654.455	-10.69
654.488	-2.69
654.521	-7.69
654.553	-13.69
654.586	4.31
654.619	-13.69
654.652	-10.69
654.685	10.31
654.718	8.31
654.751	7.31
654.783	1.31
654.816	18.31
654.849	-5.69
654.882	-2.69
654.915	-18.69
654.948	4.31
654.98	-0.69
655.013	-12.69
655.046	-2.69
655.079	-1.69
655.112	11.31
655.144	-7.69
655.177	6.31
655.21	13.31
655.243	17.31
655.276	8.31
655.308	-10.69
655.341	-12.69
655.374	2.31
655.407	-0.69
655.44	7.31
655.472	12.31
655.505	0.31
655.538	10.31
655.571	25.31
655.603	8.31
655.636	0.31
655.669	19.31
655.702	27.31
655.734	-3.69
655.767	14.31
655.8	2.31
655.833	16.31
655.865	32.31
655.898	40.31
655.931	25.31
655.964	28.31
655.996	55.31
656.029	68.31
656.062	37.31
656.095	58.31
656.127	65.31
656.16	116.31
656.193	120.31
656.225	186.31
656.258	260.31
656.291	518.31
656.324	1106.31
656.356	3298.31
656.389	7531.31
656.422	6056.31
656.454	2052.31
656.487	663.31
656.52	245.31
656.552	122.31
656.585	75.31
656.618	64.31
656.65	38.31
656.683	24.31
656.716	20.31
656.748	-0.69
656.781	18.31
656.814	-2.69
656.846	11.31
656.879	-1.69
656.912	1.31
656.944	-6.69
656.977	-2.69
657.01	13.31
657.042	-1.69
657.075	19.31
657.108	-13.69
657.14	13.31
657.173	25.31
657.205	32.31
657.238	-1.69
657.271	-1.69
657.303	-7.69
657.336	-0.69
657.369	2.31
657.401	5.31
657.434	4.31
657.466	3.31
657.499	-0.69
657.532	5.31
657.564	18.31
657.597	3.31
657.629	-0.69
657.662	0.31
657.694	-0.69
657.727	-8.69
657.76	8.31
657.792	2.31
657.825	-3.69
657.857	-13.69
657.89	2.31
657.922	10.31
657.955	-2.69
657.987	6.31
658.02	15.31
658.053	1.31
658.085	-0.69
658.118	15.31
658.15	8.31
658.183	13.31
658.215	0.31
658.248	6.31
658.28	4.31
658.313	17.31
658.345	-6.69
658.378	-8.69
658.41	-15.69
658.443	9.31
658.475	13.31
658.508	-1.69
658.54	-0.69
658.573	-14.69
658.605	-6.69
658.638	-11.69
658.67	-11.69
658.703	7.31
658.735	-8.69
658.768	5.31
658.8	-10.69
658.833	20.31
658.865	16.31
658.898	12.31
658.93	-0.69
658.963	-0.69
658.995	-17.69
659.028	-9.69
659.06	5.31
659.092	7.31
659.125	4.31
659.157	8.31
659.19	-9.69
659.222	9.31
659.255	6.31
659.287	7.31
659.32	-7.69
659.352	-0.69
659.384	-20.69
659.417	9.31
659.449	10.31
659.482	7.31
659.514	-21.69
659.546	-22.69
659.579	-28.69
659.611	21.31
659.644	-2.69
659.676	-5.69
659.708	-6.69
659.741	2.31
659.773	9.31
659.806	22.31
659.838	-8.69
659.87	-7.69
659.903	-18.69
659.935	-1.69
659.967	6.31
660	15.31
660.032	-9.69
660.065	5.31
660.097	-4.69
660.129	-1.69
660.162	3.31
660.194	13.31
660.226	11.31
660.259	5.31
660.291	5.31
660.323	12.31
660.356	-4.69
660.388	0.31
660.42	-3.69
660.453	4.31
660.485	-4.69
660.517	8.31
660.55	3.31
660.582	-15.69
660.614	5.31
660.647	-10.69
660.679	-14.69
660.711	0.31
660.743	-2.69
660.776	-14.69
660.808	-13.69
660.84	0.31
660.873	8.31
660.905	-0.69
660.937	14.31
660.969	4.31
661.002	6.31
661.034	10.31
661.066	-0.69
661.099	8.31
661.131	11.31
661.163	3.31
661.195	0.31
661.228	26.31
661.26	-20.69
661.292	6.31
661.324	19.31
661.357	23.31
661.389	8.31
661.421	15.31
661.453	-1.69
661.485	-1.69
661.518	1.31
661.55	-11.69
661.582	-16.69
661.614	-9.69
661.647	-6.69
661.679	-11.69
661.711	-0.69
661.743	-13.69
661.775	-5.69
661.808	12.31
661.84	-17.69
661.872	-6.69
661.904	-18.69
661.936	1.31
661.969	-4.69
662.001	-9.69
662.033	0.31
662.065	-18.69
662.097	7.31
662.129	1.31
662.162	4.31
662.194	-0.69
662.226	6.31
662.258	4.31
662.29	-14.69
662.322	-10.69
662.355	-10.69
662.387	21.31
662.419	13.31
662.451	7.31
662.483	12.31
662.515	-18.69
662.547	-10.69
662.58	-15.69
662.612	-13.69
662.644	-26.69
662.676	14.31
662.708	19.31
662.74	-5.69
662.772	13.31
662.804	-1.69
662.836	11.31
662.869	-2.69
662.901	0.31
662.933	0.31
662.965	1.31
662.997	20.31
663.029	-9.69
663.061	-11.69
663.093	-14.69
663.125	2.31
663.157	9.31
663.189	-2.69
663.221	12.31
663.254	3.31
663.286	10.31
663.318	1.31
663.35	-11.69
663.382	2.31
663.414	18.31
663.446	3.31
663.478	-10.69
663.51	24.31
663.542	-13.69
663.574	-8.69
663.606	2.31
663.638	-6.69
663.67	-19.69
663.702	-11.69
663.734	-4.69
663.766	22.31
663.798	-7.69
663.83	8.31
663.862	-9.69
663.894	1.31
663.926	-13.69
663.958	-3.69
663.99	-1.69
664.022	6.31
664.054	18.31
664.086	-7.69
664.118	-13.69
664.15	-11.69
664.182	7.31
664.214	9.31
664.246	1.31
664.278	-9.69
664.31	5.31
664.342	-5.69
664.374	-5.69
664.406	-10.69
664.438	-20.69
664.47	7.31
664.502	6.31
664.534	-11.69
664.566	-6.69
664.598	5.31
664.63	-10.69
664.662	1.31
664.693	0.31
664.725	-21.69
664.757	-7.69
664.789	-8.69
664.821	14.31
664.853	11.31
664.885	0.31
664.917	-1.69
664.949	9.31
664.981	18.31
665.013	-3.69
665.045	-12.69
665.076	-12.69
665.108	-1.69
665.14	-5.69
665.172	14.31
665.204	1.31
665.236	11.31
665.268	16.31
665.3	-0.69
665.331	-7.69
665.363	8.31
665.395	-17.69
665.427	-5.69
665.459	14.31
665.491	6.31
665.523	4.31
665.555	-21.69
665.586	3.31
665.618	-4.69
665.65	-6.69
665.682	2.31
665.714	13.31
665.746	6.31
665.777	-1.69
665.809	2.31
665.841	-1.69
665.873	-6.69
665.905	10.31
665.937	16.31
665.968	-5.69
666	14.31
666.032	14.31
666.064	7.31
666.096	-4.69
666.127	-7.69
666.159	8.31
666.191	-2.69
666.223	-9.69
666.255	1.31
666.286	6.31
666.318	-6.69
666.35	21.31
666.382	-4.69
666.413	-23.69
666.445	-17.69
666.477	-18.69
666.509	-10.69
666.54	-2.69
666.572	-11.69
666.604	6.31
666.636	4.31
666.667	14.31
666.699	4.31
666.731	22.31
666.763	-4.69
666.794	-10.69
666.826	9.31
666.858	-19.69
666.89	11.31
666.921	0.31
666.953	3.31
666.985	7.31
667.017	0.31
667.048	13.31
667.08	0.31
667.112	8.31
667.143	-3.69
667.175	-5.69
667.207	-1.69
667.238	18.31
667.27	0.31
667.302	6.31
667.334	-17.69
667.365	7.31
667.397	-7.69
667.429	3.31
667.46	12.31
667.492	8.31
667.524	-11.69
667.555	-12.69
667.587	2.31
667.619	5.31
667.65	1.31
667.682	7.31
667.714	-7.69
667.745	3.31
667.777	-5.69
667.808	3.31
667.84	9.31
667.872	-7.69
667.903	18.31
667.935	-0.69
667.967	-13.69
667.998	-4.69
668.03	-18.69
668.061	-1.69
668.093	0.31
668.125	1.31
668.156	3.31
668.188	-8.69
668.22	-11.69
668.251	0.31
668.283	18.31
668.314	-2.69
668.346	-11.69
668.377	-8.69
668.409	-23.69
668.441	15.31
668.472	2.31
668.504	24.31
668.535	17.31
668.567	13.31
668.599	1.31
668.63	-9.69
668.662	2.31
668.693	6.31
668.725	-0.69
668.756	7.31
668.788	1.31
668.819	2.31
668.851	7.31
668.882	6.31
668.914	-10.69
668.946	-5.69
668.977	-10.69
669.009	-7.69
669.04	-16.69
669.072	-3.69
669.103	0.31
669.135	-9.69
669.166	-7.69
669.198	-0.69
669.229	3.31
669.261	-4.69
669.292	-7.69
669.324	4.31
669.355	-0.69
669.387	-6.69
669.418	2.31
669.45	-7.69
669.481	19.31
669.513	6.31
669.544	1.31
669.576	-1.69
669.607	7.31
669.639	11.31
669.67	-8.69
669.701	5.31
669.733	-3.69
669.764	2.31
669.796	-5.69
669.827	-8.69
669.859	9.31
669.89	6.31
669.922	13.31
669.953	8.31
669.985	2.31
670.016	14.31
670.047	10.31
670.079	-16.69
670.11	-0.69
670.142	12.31
670.173	-2.69
670.204	-1.69
670.236	13.31
670.267	1.31
670.299	-5.69
670.33	-6.69
670.362	7.31
670.393	-6.69
670.424	-9.69
670.456	-34.69
670.487	1.31
670.518	-13.69
670.55	-1.69
670.581	-2.69
670.613	-7.69
670.644	-9.69
670.675	-31.69
670.707	-15.69
670.738	-5.69
670.769	-3.69
670.801	-7.69
670.832	8.31
670.864	-29.69
670.895	0.31
670.926	-0.69
670.958	-4.69
670.989	2.31
671.02	14.31
671.052	8.31
671.083	9.31
671.114	-5.69
671.146	11.31
671.177	-8.69
671.208	-13.69
671.24	-10.69
671.271	-1.69
671.302	-6.69
671.333	2.31
671.365	-2.69
671.396	-9.69
671.427	14.31
671.459	-5.69
671.49	-8.69
671.521	15.31
671.553	6.31
671.584	5.31
671.615	-6.69
671.646	-2.69
671.678	9.31
671.709	-4.69
671.74	-28.69
671.771	-14.69
671.803	-1.69
671.834	-2.69
671.865	-12.69
671.896	-8.69
671.928	-1.69
671.959	6.31
671.99	-2.69
672.021	1.31
672.053	-17.69
672.084	-2.69
672.115	0.31
672.146	-11.69
672.178	-8.69
672.209	-7.69
672.24	-14.69
672.271	27.31
672.303	3.31
672.334	-0.69
672.365	-1.69
672.396	-1.69
672.427	12.31
672.459	7.31
672.49	24.31
672.521	5.31
672.552	-9.69
672.583	0.31
672.615	3.31
672.646	-6.69
672.677	-11.69
672.708	-2.69
672.739	-14.69
672.77	1.31
672.802	-0.69
672.833	10.31
672.864	7.31
672.895	5.31
672.926	-2.69
672.957	-28.69
672.989	-2.69
673.02	1.31
673.051	0.31
673.082	-5.69
673.113	-1.69
673.144	5.31
673.175	4.31
673.206	-10.69
673.238	-1.69
673.269	-5.69
673.3	-7.69
673.331	21.31
673.362	-1.69
673.393	0.31
673.424	0.31
673.455	3.31
673.487	0.31
673.518	12.31
673.549	-0.69
673.58	-7.69
673.611	5.31
673.642	19.31
673.673	-15.69
673.704	1.31
673.735	-0.69
673.766	14.31
673.797	1.31
673.828	-8.69
673.86	-9.69
673.891	-5.69
673.922	-11.69
673.953	-6.69
673.984	-2.69
674.015	-9.69
674.046	6.31
674.077	-10.69
674.108	-8.69
674.139	-2.69
674.17	-5.69
674.201	-12.69
674.232	-1.69
674.263	2.31
674.294	4.31
674.325	-16.69
674.356	-6.69
674.387	13.31
674.418	-0.69
674.449	-10.69
674.48	-13.69
674.511	7.31
674.542	16.31
674.573	2.31
674.604	13.31
674.635	-8.69
674.666	16.31
674.697	13.31
674.728	-4.69
674.759	4.31
674.79	2.31
674.821	7.31
674.852	2.31
674.883	-8.69
674.914	-7.69
674.945	-3.69
674.976	-0.69
675.007	-7.69
675.038	-9.69
675.069	-8.69
675.1	-1.69
675.131	-3.69
675.162	-5.69
675.193	-7.69
675.224	-14.69
675.254	-10.69
675.285	-2.69
675.316	3.31
675.347	-7.69
675.378	1.31
675.409	-6.69
675.44	-5.69
675.471	2.31
675.502	-9.69
675.533	12.31
675.564	0.31
675.595	-20.69
675.625	9.31
675.656	0.31
675.687	-9.69
675.718	-16.69
675.749	0.31
675.78	-5.69
675.811	-27.69
675.842	7.31
675.873	-11.69
675.903	-17.69
675.934	-4.69
675.965	-6.69
675.996	-23.69
676.027	10.31
676.058	14.31
676.089	-16.69
676.119	4.31
676.15	12.31
676.181	-12.69
676.212	-9.69
676.243	7.31
676.274	-9.69
676.304	4.31
676.335	-5.69
676.366	6.31
676.397	-7.69
676.428	-7.69
676.459	-1.69
676.489	2.31
676.52	9.31
676.551	-3.69
676.582	-19.69
676.613	-2.69
676.643	-11.69
676.674	2.31
676.705	1.31
676.736	13.31
676.767	0.31
676.797	2.31
676.828	-1.69
676.859	-7.69
676.89	1.31
676.92	10.31
676.951	11.31
676.982	14.31
677.013	4.31
677.044	19.31
677.074	-7.69
677.105	-20.69
677.136	10.31
677.167	3.31
677.197	-1.69
677.228	-2.69
677.259	-7.69
677.289	-7.69
677.32	-14.69
677.351	-12.69
677.382	-11.69
677.412	-7.69
677.443	-5.69
677.474	27.31
677.505	1.31
677.535	2.31
677.566	-19.69
677.597	-9.69
677.627	-13.69
677.658	-12.69
677.689	-3.69
677.72	4.31
677.75	-2.69
677.781	4.31
677.812	-9.69
677.842	3.31
677.873	13.31
677.904	5.31
677.934	-1.69
677.965	-15.69
677.996	-19.69
678.026	-9.69
678.057	-15.69
678.088	-12.69
678.118	3.31
678.149	-2.69
678.18	0.31
678.21	-4.69
678.241	11.31
678.272	-3.69
678.302	-5.69
678.333	3.31
678.363	0.31
678.394	6.31
678.425	8.31
678.455	7.31
678.486	13.31
678.517	2.31
678.547	-7.69
678.578	4.31
678.608	4.31
678.639	8.31
678.67	11.31
678.7	6.31
678.731	-3.69
678.761	-6.69
678.792	8.31
678.823	23.31
678.853	1.31
678.884	0.31
678.914	-1.69
678.945	-5.69
678.975	-2.69
679.006	19.31
679.037	-10.69
679.067	4.31
679.098	5.31
679.128	-0.69
679.159	1.31
679.189	2.31
679.22	-20.69
679.25	5.31
679.281	-21.69
679.312	-0.69
679.342	2.31
679.373	30.31
679.403	13.31
679.434	6.31
679.464	-10.69
679.495	-8.69
679.525	4.31
679.556	-1.69
679.586	-2.69
679.617	1.31
679.647	-9.69
679.678	-6.69
679.708	-6.69
679.739	0.31
679.769	-2.69
679.8	4.31
679.83	-3.69
679.861	7.31
679.891	-7.69
679.922	-16.69
679.952	5.31
679.983	3.31
680.013	1.31
680.044	-12.69
680.074	8.31
680.105	12.31
680.135	-2.69
680.165	13.31
680.196	11.31
680.226	2.31
680.257	14.31
680.287	8.31
680.318	-16.69
680.348	-4.69
680.379	7.31
680.409	-3.69
680.439	2.31
680.47	-8.69
680.5	-6.69
680.531	1.31
680.561	7.31
680.592	6.31
680.622	10.31
680.652	-20.69
680.683	10.31
680.713	-1.69
680.744	-2.69
680.774	2.31
680.804	15.31
680.835	-2.69
680.865	-5.69
680.896	8.31
680.926	9.31
680.956	6.31
680.987	-1.69
681.017	3.31
681.047	-2.69
681.078	-12.69
681.108	-10.69
681.139	11.31
681.169	9.31
681.199	0.31
681.23	-7.69
681.26	-3.69
681.29	-0.69
681.321	-5.69
681.351	8.31
681.381	-11.69
681.412	-7.69
681.442	13.31
681.472	7.31
681.503	18.31
681.533	11.31
681.563	-1.69
681.594	8.31
681.624	-4.69
681.654	-6.69
681.685	5.31
681.715	5.31
681.745	-13.69
681.775	-7.69
681.806	-5.69
681.836	0.31
681.866	-3.69
681.897	5.31
681.927	3.31
681.957	-26.69
681.987	3.31
682.018	-6.69
682.048	-2.69
682.078	-10.69
682.109	12.31
682.139	11.31
682.169	4.31
682.199	0.31
682.23	-3.69
682.26	-8.69
682.29	-5.69
682.32	-9.69
682.351	4.31
682.381	6.31
682.411	-6.69
682.441	-14.69
682.472	2.31
