Data from HighRes_H2_15_09_11_07_2024_HR4C61891__164__15-11-12-801.txt Node

Date: Thu Nov 07 15:11:12 EST 2024
User: crc00042
Spectrometer: HR4C6189
Trigger mode: 4
Integration Time (sec): 1.000000E-1
Scans to average: 1
Electric dark correction enabled: true
Nonlinearity correction enabled: false
Boxcar width: 0
XAxis mode: Wavelengths
Number of Pixels in Spectrum: 3648
>>>>>Begin Spectral Data<<<<<
639.567	-59.23
639.602	-59.23
639.636	-59.23
639.67	-44.23
639.704	-26.23
639.738	-6.23
639.773	14.77
639.807	-18.23
639.841	7.77
639.875	11.77
639.909	11.77
639.943	-14.23
639.978	0.77
640.012	-3.23
640.046	14.77
640.08	-7.23
640.114	-8.23
640.148	-4.23
640.182	-14.23
640.217	0.77
640.251	34.77
640.285	14.77
640.319	-9.23
640.353	1.77
640.387	9.77
640.421	-0.23
640.455	-3.23
640.49	-6.23
640.524	6.77
640.558	8.77
640.592	-6.23
640.626	-1.23
640.66	-1.23
640.694	6.77
640.728	5.77
640.762	16.77
640.796	7.77
640.83	7.77
640.865	-5.23
640.899	4.77
640.933	12.77
640.967	-21.23
641.001	11.77
641.035	19.77
641.069	-8.23
641.103	-3.23
641.137	-1.23
641.171	-4.23
641.205	21.77
641.239	6.77
641.273	5.77
641.307	8.77
641.341	-12.23
641.375	-13.23
641.409	2.77
641.443	1.77
641.477	15.77
641.511	14.77
641.545	7.77
641.579	0.77
641.614	5.77
641.648	-8.23
641.682	-13.23
641.716	8.77
641.75	27.77
641.784	-1.23
641.818	-10.23
641.852	16.77
641.886	-1.23
641.919	19.77
641.953	-6.23
641.987	-12.23
642.021	-10.23
642.055	3.77
642.089	5.77
642.123	-0.23
642.157	4.77
642.191	-9.23
642.225	17.77
642.259	-7.23
642.293	6.77
642.327	-7.23
642.361	5.77
642.395	21.77
642.429	13.77
642.463	22.77
642.497	15.77
642.531	-7.23
642.565	-4.23
642.599	11.77
642.633	0.77
642.666	6.77
642.7	4.77
642.734	5.77
642.768	-2.23
642.802	8.77
642.836	-8.23
642.87	-13.23
642.904	6.77
642.938	18.77
642.972	12.77
643.005	-1.23
643.039	18.77
643.073	-5.23
643.107	-2.23
643.141	-6.23
643.175	1.77
643.209	-7.23
643.243	-17.23
643.276	3.77
643.31	-6.23
643.344	10.77
643.378	2.77
643.412	10.77
643.446	-5.23
643.48	1.77
643.513	5.77
643.547	-0.23
643.581	-0.23
643.615	-12.23
643.649	-11.23
643.683	-4.23
643.716	-3.23
643.75	3.77
643.784	-24.23
643.818	4.77
643.852	-3.23
643.886	0.77
643.919	1.77
643.953	14.77
643.987	5.77
644.021	-6.23
644.055	11.77
644.088	16.77
644.122	-0.23
644.156	-2.23
644.19	7.77
644.224	1.77
644.257	10.77
644.291	20.77
644.325	16.77
644.359	15.77
644.392	11.77
644.426	15.77
644.46	6.77
644.494	8.77
644.527	-21.23
644.561	-8.23
644.595	-9.23
644.629	-12.23
644.662	-4.23
644.696	1.77
644.73	7.77
644.764	-5.23
644.797	-12.23
644.831	-12.23
644.865	2.77
644.899	6.77
644.932	19.77
644.966	4.77
645	9.77
645.033	6.77
645.067	-13.23
645.101	3.77
645.135	-14.23
645.168	-4.23
645.202	-11.23
645.236	-3.23
645.269	13.77
645.303	0.77
645.337	3.77
645.37	-0.23
645.404	7.77
645.438	12.77
645.471	11.77
645.505	8.77
645.539	9.77
645.572	-6.23
645.606	1.77
645.64	6.77
645.673	11.77
645.707	17.77
645.741	4.77
645.774	-12.23
645.808	8.77
645.842	-8.23
645.875	3.77
645.909	-4.23
645.943	-14.23
645.976	2.77
646.01	6.77
646.043	16.77
646.077	-3.23
646.111	-2.23
646.144	5.77
646.178	11.77
646.212	-9.23
646.245	-15.23
646.279	1.77
646.312	1.77
646.346	2.77
646.38	-13.23
646.413	7.77
646.447	7.77
646.48	-5.23
646.514	16.77
646.547	3.77
646.581	2.77
646.615	3.77
646.648	-0.23
646.682	-1.23
646.715	3.77
646.749	-3.23
646.782	0.77
646.816	-13.23
646.85	-15.23
646.883	-24.23
646.917	-11.23
646.95	-1.23
646.984	8.77
647.017	11.77
647.051	20.77
647.084	3.77
647.118	-7.23
647.151	-2.23
647.185	25.77
647.218	-21.23
647.252	13.77
647.285	-8.23
647.319	-11.23
647.353	15.77
647.386	13.77
647.42	-10.23
647.453	-10.23
647.487	-1.23
647.52	14.77
647.553	5.77
647.587	-1.23
647.62	-15.23
647.654	5.77
647.687	6.77
647.721	16.77
647.754	10.77
647.788	5.77
647.821	-1.23
647.855	5.77
647.888	3.77
647.922	5.77
647.955	13.77
647.989	8.77
648.022	4.77
648.055	15.77
648.089	-16.23
648.122	18.77
648.156	-6.23
648.189	-9.23
648.223	15.77
648.256	25.77
648.29	4.77
648.323	1.77
648.356	2.77
648.39	-6.23
648.423	-3.23
648.457	2.77
648.49	2.77
648.523	5.77
648.557	-3.23
648.59	-17.23
648.624	-3.23
648.657	3.77
648.69	18.77
648.724	3.77
648.757	19.77
648.791	10.77
648.824	11.77
648.857	16.77
648.891	-0.23
648.924	15.77
648.957	17.77
648.991	-29.23
649.024	13.77
649.057	-16.23
649.091	-19.23
649.124	2.77
649.158	7.77
649.191	3.77
649.224	4.77
649.258	5.77
649.291	-1.23
649.324	1.77
649.358	5.77
649.391	3.77
649.424	-2.23
649.458	-6.23
649.491	12.77
649.524	-16.23
649.557	-18.23
649.591	-24.23
649.624	16.77
649.657	-7.23
649.691	-4.23
649.724	11.77
649.757	1.77
649.791	-25.23
649.824	-4.23
649.857	6.77
649.89	18.77
649.924	-2.23
649.957	-0.23
649.99	-12.23
650.023	-4.23
650.057	2.77
650.09	10.77
650.123	-0.23
650.157	0.77
650.19	7.77
650.223	-9.23
650.256	-4.23
650.29	-2.23
650.323	4.77
650.356	-1.23
650.389	1.77
650.423	-5.23
650.456	-8.23
650.489	-14.23
650.522	4.77
650.555	19.77
650.589	15.77
650.622	0.77
650.655	30.77
650.688	-7.23
650.721	-0.23
650.755	4.77
650.788	1.77
650.821	3.77
650.854	-0.23
650.887	7.77
650.921	-7.23
650.954	2.77
650.987	-11.23
651.02	-6.23
651.053	-6.23
651.087	-16.23
651.12	16.77
651.153	16.77
651.186	-5.23
651.219	-7.23
651.252	4.77
651.286	6.77
651.319	-4.23
651.352	8.77
651.385	3.77
651.418	-1.23
651.451	6.77
651.484	-4.23
651.518	-12.23
651.551	6.77
651.584	-8.23
651.617	12.77
651.65	17.77
651.683	9.77
651.716	6.77
651.749	1.77
651.783	10.77
651.816	14.77
651.849	-1.23
651.882	9.77
651.915	-11.23
651.948	6.77
651.981	5.77
652.014	-17.23
652.047	-0.23
652.08	-16.23
652.114	3.77
652.147	-3.23
652.18	9.77
652.213	26.77
652.246	-20.23
652.279	-8.23
652.312	0.77
652.345	-7.23
652.378	23.77
652.411	11.77
652.444	-0.23
652.477	2.77
652.51	20.77
652.543	-25.23
652.576	11.77
652.609	3.77
652.642	0.77
652.675	8.77
652.709	-3.23
652.742	-0.23
652.775	6.77
652.808	15.77
652.841	-0.23
652.874	-8.23
652.907	5.77
652.94	-7.23
652.973	-17.23
653.006	-3.23
653.039	5.77
653.072	4.77
653.105	-1.23
653.138	-15.23
653.171	-2.23
653.204	-17.23
653.237	-11.23
653.27	-8.23
653.303	-3.23
653.336	-8.23
653.368	2.77
653.401	13.77
653.434	-14.23
653.467	-0.23
653.5	-5.23
653.533	-9.23
653.566	-10.23
653.599	17.77
653.632	0.77
653.665	-1.23
653.698	-19.23
653.731	-11.23
653.764	9.77
653.797	5.77
653.83	7.77
653.863	12.77
653.896	14.77
653.929	7.77
653.961	1.77
653.994	-13.23
654.027	-2.23
654.06	14.77
654.093	-0.23
654.126	3.77
654.159	-19.23
654.192	0.77
654.225	1.77
654.258	-6.23
654.29	-4.23
654.323	7.77
654.356	-4.23
654.389	6.77
654.422	-12.23
654.455	0.77
654.488	-1.23
654.521	-13.23
654.553	-1.23
654.586	4.77
654.619	1.77
654.652	-0.23
654.685	15.77
654.718	6.77
654.751	17.77
654.783	6.77
654.816	8.77
654.849	-0.23
654.882	-7.23
654.915	-23.23
654.948	-3.23
654.98	-7.23
655.013	2.77
655.046	-4.23
655.079	-7.23
655.112	12.77
655.144	-13.23
655.177	7.77
655.21	4.77
655.243	6.77
655.276	12.77
655.308	0.77
655.341	-14.23
655.374	9.77
655.407	-1.23
655.44	-9.23
655.472	9.77
655.505	-1.23
655.538	-0.23
655.571	12.77
655.603	1.77
655.636	6.77
655.669	23.77
655.702	12.77
655.734	7.77
655.767	8.77
655.8	11.77
655.833	22.77
655.865	37.77
655.898	12.77
655.931	33.77
655.964	35.77
655.996	38.77
656.029	62.77
656.062	33.77
656.095	45.77
656.127	62.77
656.16	99.77
656.193	115.77
656.225	157.77
656.258	270.77
656.291	483.77
656.324	1139.77
656.356	3434.77
656.389	7620.77
656.422	6108.77
656.454	2092.77
656.487	681.77
656.52	270.77
656.552	129.77
656.585	75.77
656.618	51.77
656.65	31.77
656.683	19.77
656.716	17.77
656.748	9.77
656.781	-2.23
656.814	-18.23
656.846	15.77
656.879	10.77
656.912	-4.23
656.944	-13.23
656.977	-10.23
657.01	5.77
657.042	-0.23
657.075	18.77
657.108	-6.23
657.14	6.77
657.173	4.77
657.205	23.77
657.238	1.77
657.271	4.77
657.303	3.77
657.336	15.77
657.369	5.77
657.401	-5.23
657.434	4.77
657.466	22.77
657.499	1.77
657.532	-2.23
657.564	-3.23
657.597	-10.23
657.629	11.77
657.662	5.77
657.694	7.77
657.727	-11.23
657.76	1.77
657.792	4.77
657.825	7.77
657.857	-3.23
657.89	-2.23
657.922	12.77
657.955	-15.23
657.987	11.77
658.02	22.77
658.053	14.77
658.085	-0.23
658.118	4.77
658.15	13.77
658.183	20.77
658.215	24.77
658.248	8.77
658.28	2.77
658.313	10.77
658.345	10.77
658.378	2.77
658.41	5.77
658.443	-5.23
658.475	-1.23
658.508	5.77
658.54	11.77
658.573	0.77
658.605	2.77
658.638	1.77
658.67	-14.23
658.703	12.77
658.735	-10.23
658.768	2.77
658.8	-8.23
658.833	11.77
658.865	7.77
658.898	-19.23
658.93	-4.23
658.963	-1.23
658.995	-17.23
659.028	-4.23
659.06	2.77
659.092	-6.23
659.125	6.77
659.157	-0.23
659.19	-4.23
659.222	4.77
659.255	9.77
659.287	-9.23
659.32	-12.23
659.352	1.77
659.384	22.77
659.417	-1.23
659.449	0.77
659.482	2.77
659.514	-4.23
659.546	-17.23
659.579	-12.23
659.611	5.77
659.644	-1.23
659.676	-13.23
659.708	-5.23
659.741	12.77
659.773	16.77
659.806	7.77
659.838	-2.23
659.87	-3.23
659.903	-1.23
659.935	10.77
659.967	4.77
660	9.77
660.032	0.77
660.065	-3.23
660.097	-7.23
660.129	-17.23
660.162	-10.23
660.194	0.77
660.226	15.77
660.259	18.77
660.291	-9.23
660.323	3.77
660.356	3.77
660.388	-5.23
660.42	7.77
660.453	9.77
660.485	1.77
660.517	9.77
660.55	10.77
660.582	-4.23
660.614	14.77
660.647	0.77
660.679	-21.23
660.711	-1.23
660.743	0.77
660.776	10.77
660.808	14.77
660.84	10.77
660.873	15.77
660.905	-1.23
660.937	2.77
660.969	-0.23
661.002	0.77
661.034	11.77
661.066	1.77
661.099	4.77
661.131	19.77
661.163	-13.23
661.195	3.77
661.228	16.77
661.26	7.77
661.292	-0.23
661.324	2.77
661.357	15.77
661.389	15.77
661.421	5.77
661.453	-3.23
661.485	0.77
661.518	2.77
661.55	-7.23
661.582	-13.23
661.614	4.77
661.647	10.77
661.679	-7.23
661.711	16.77
661.743	-4.23
661.775	-10.23
661.808	12.77
661.84	-12.23
661.872	2.77
661.904	4.77
661.936	-5.23
661.969	-7.23
662.001	-4.23
662.033	-1.23
662.065	-0.23
662.097	16.77
662.129	6.77
662.162	-0.23
662.194	-2.23
662.226	2.77
662.258	11.77
662.29	4.77
662.322	-11.23
662.355	-9.23
662.387	9.77
662.419	15.77
662.451	4.77
662.483	7.77
662.515	-12.23
662.547	0.77
662.58	-12.23
662.612	-2.23
662.644	0.77
662.676	8.77
662.708	29.77
662.74	-0.23
662.772	-11.23
662.804	-0.23
662.836	-2.23
662.869	2.77
662.901	10.77
662.933	-1.23
662.965	17.77
662.997	17.77
663.029	6.77
663.061	-9.23
663.093	-6.23
663.125	25.77
663.157	-5.23
663.189	8.77
663.221	4.77
663.254	2.77
663.286	3.77
663.318	-4.23
663.35	-0.23
663.382	-9.23
663.414	6.77
663.446	1.77
663.478	2.77
663.51	31.77
663.542	-11.23
663.574	16.77
663.606	2.77
663.638	3.77
663.67	2.77
663.702	2.77
663.734	-2.23
663.766	11.77
663.798	-25.23
663.83	-5.23
663.862	9.77
663.894	6.77
663.926	5.77
663.958	20.77
663.99	0.77
664.022	-3.23
664.054	7.77
664.086	-16.23
664.118	-16.23
664.15	-29.23
664.182	2.77
664.214	-15.23
664.246	10.77
664.278	4.77
664.31	17.77
664.342	-3.23
664.374	-5.23
664.406	-1.23
664.438	5.77
664.47	7.77
664.502	-16.23
664.534	-2.23
664.566	-10.23
664.598	1.77
664.63	-13.23
664.662	1.77
664.693	4.77
664.725	-20.23
664.757	-11.23
664.789	-17.23
664.821	5.77
664.853	1.77
664.885	-8.23
664.917	-17.23
664.949	6.77
664.981	23.77
665.013	-8.23
665.045	-2.23
665.076	7.77
665.108	-7.23
665.14	7.77
665.172	6.77
665.204	-14.23
665.236	-9.23
665.268	7.77
665.3	0.77
665.331	-33.23
665.363	2.77
665.395	-10.23
665.427	-10.23
665.459	-9.23
665.491	-4.23
665.523	-9.23
665.555	-28.23
665.586	-3.23
665.618	-0.23
665.65	-21.23
665.682	-2.23
665.714	1.77
665.746	-15.23
665.777	0.77
665.809	-8.23
665.841	-0.23
665.873	-5.23
665.905	7.77
665.937	6.77
665.968	-9.23
666	-13.23
666.032	-6.23
666.064	-9.23
666.096	-0.23
666.127	-3.23
666.159	-4.23
666.191	4.77
666.223	1.77
666.255	14.77
666.286	5.77
666.318	-9.23
666.35	6.77
666.382	-0.23
666.413	-23.23
666.445	-10.23
666.477	1.77
666.509	-9.23
666.54	6.77
666.572	-2.23
666.604	-2.23
666.636	-5.23
666.667	11.77
666.699	15.77
666.731	-3.23
666.763	-15.23
666.794	-1.23
666.826	-6.23
666.858	-16.23
666.89	14.77
666.921	3.77
666.953	-2.23
666.985	-8.23
667.017	1.77
667.048	1.77
667.08	-8.23
667.112	-20.23
667.143	-13.23
667.175	17.77
667.207	4.77
667.238	-10.23
667.27	10.77
667.302	5.77
667.334	2.77
667.365	12.77
667.397	9.77
667.429	2.77
667.46	14.77
667.492	-0.23
667.524	-9.23
667.555	-9.23
667.587	3.77
667.619	-8.23
667.65	10.77
667.682	0.77
667.714	5.77
667.745	4.77
667.777	-1.23
667.808	3.77
667.84	1.77
667.872	-4.23
667.903	26.77
667.935	5.77
667.967	-9.23
667.998	2.77
668.03	7.77
668.061	8.77
668.093	2.77
668.125	-3.23
668.156	5.77
668.188	-2.23
668.22	-3.23
668.251	-3.23
668.283	13.77
668.314	15.77
668.346	9.77
668.377	2.77
668.409	-13.23
668.441	3.77
668.472	8.77
668.504	30.77
668.535	-10.23
668.567	-7.23
668.599	2.77
668.63	0.77
668.662	19.77
668.693	11.77
668.725	-2.23
668.756	2.77
668.788	-19.23
668.819	-6.23
668.851	8.77
668.882	9.77
668.914	0.77
668.946	6.77
668.977	-13.23
669.009	10.77
669.04	-4.23
669.072	-8.23
669.103	-3.23
669.135	-15.23
669.166	4.77
669.198	18.77
669.229	-7.23
669.261	-3.23
669.292	-0.23
669.324	2.77
669.355	7.77
669.387	-6.23
669.418	10.77
669.45	-22.23
669.481	-6.23
669.513	1.77
669.544	17.77
669.576	-8.23
669.607	4.77
669.639	13.77
669.67	-12.23
669.701	6.77
669.733	-14.23
669.764	-1.23
669.796	-18.23
669.827	-15.23
669.859	-6.23
669.89	9.77
669.922	17.77
669.953	5.77
669.985	0.77
670.016	18.77
670.047	4.77
670.079	-0.23
670.11	6.77
670.142	3.77
670.173	-13.23
670.204	-0.23
670.236	3.77
670.267	-9.23
670.299	-7.23
670.33	0.77
670.362	11.77
670.393	-8.23
670.424	-4.23
670.456	-22.23
670.487	-12.23
670.518	0.77
670.55	-0.23
670.581	-4.23
670.613	-7.23
670.644	-6.23
670.675	-5.23
670.707	-30.23
670.738	3.77
670.769	-5.23
670.801	-6.23
670.832	4.77
670.864	-8.23
670.895	-3.23
670.926	3.77
670.958	-1.23
670.989	-6.23
671.02	-5.23
671.052	16.77
671.083	7.77
671.114	2.77
671.146	9.77
671.177	-6.23
671.208	-3.23
671.24	-16.23
671.271	-8.23
671.302	12.77
671.333	-14.23
671.365	-9.23
671.396	-8.23
671.427	-3.23
671.459	-0.23
671.49	0.77
671.521	1.77
671.553	-1.23
671.584	-1.23
671.615	-2.23
671.646	8.77
671.678	-12.23
671.709	-21.23
671.74	-29.23
671.771	-18.23
671.803	4.77
671.834	7.77
671.865	-8.23
671.896	-6.23
671.928	6.77
671.959	-5.23
671.99	-11.23
672.021	9.77
672.053	9.77
672.084	11.77
672.115	3.77
672.146	-6.23
672.178	-22.23
672.209	-4.23
672.24	-0.23
672.271	21.77
672.303	6.77
672.334	-12.23
672.365	1.77
672.396	-0.23
672.427	-0.23
672.459	3.77
672.49	26.77
672.521	14.77
672.552	5.77
672.583	-5.23
672.615	-15.23
672.646	8.77
672.677	-1.23
672.708	-2.23
672.739	-6.23
672.77	-4.23
672.802	-3.23
672.833	-9.23
672.864	-1.23
672.895	-17.23
672.926	-20.23
672.957	-13.23
672.989	-22.23
673.02	-4.23
673.051	-9.23
673.082	15.77
673.113	2.77
673.144	19.77
673.175	1.77
673.206	-4.23
673.238	1.77
673.269	4.77
673.3	-1.23
673.331	23.77
673.362	2.77
673.393	-4.23
673.424	7.77
673.455	9.77
673.487	-24.23
673.518	-2.23
673.549	-13.23
673.58	-8.23
673.611	-0.23
673.642	-1.23
673.673	-16.23
673.704	-0.23
673.735	-10.23
673.766	-0.23
673.797	2.77
673.828	0.77
673.86	1.77
673.891	-13.23
673.922	-16.23
673.953	-12.23
673.984	14.77
674.015	5.77
674.046	-0.23
674.077	5.77
674.108	-10.23
674.139	-13.23
674.17	-0.23
674.201	-7.23
674.232	-6.23
674.263	5.77
674.294	-4.23
674.325	1.77
674.356	1.77
674.387	12.77
674.418	0.77
674.449	-21.23
674.48	-12.23
674.511	-3.23
674.542	5.77
674.573	-8.23
674.604	6.77
674.635	-2.23
674.666	4.77
674.697	11.77
674.728	-20.23
674.759	-2.23
674.79	-5.23
674.821	-2.23
674.852	13.77
674.883	4.77
674.914	-2.23
674.945	-5.23
674.976	-5.23
675.007	-6.23
675.038	-7.23
675.069	-8.23
675.1	-14.23
675.131	5.77
675.162	-8.23
675.193	-14.23
675.224	-8.23
675.254	8.77
675.285	-8.23
675.316	5.77
675.347	-1.23
675.378	-15.23
675.409	-9.23
675.44	-2.23
675.471	-3.23
675.502	-10.23
675.533	-1.23
675.564	0.77
675.595	-14.23
675.625	19.77
675.656	-1.23
675.687	-9.23
675.718	-15.23
675.749	8.77
675.78	8.77
675.811	-2.23
675.842	3.77
675.873	-9.23
675.903	-10.23
675.934	7.77
675.965	-13.23
675.996	-6.23
676.027	-0.23
676.058	-5.23
676.089	-16.23
676.119	8.77
676.15	-8.23
676.181	-8.23
676.212	-3.23
676.243	13.77
676.274	-4.23
676.304	-4.23
676.335	-7.23
676.366	7.77
676.397	-1.23
676.428	-7.23
676.459	18.77
676.489	7.77
676.52	3.77
676.551	1.77
676.582	-13.23
676.613	7.77
676.643	-10.23
676.674	9.77
676.705	-9.23
676.736	-7.23
676.767	21.77
676.797	1.77
676.828	15.77
676.859	-0.23
676.89	-3.23
676.92	-6.23
676.951	9.77
676.982	-3.23
677.013	-4.23
677.044	25.77
677.074	-0.23
677.105	-0.23
677.136	-7.23
677.167	-7.23
677.197	8.77
677.228	0.77
677.259	-10.23
677.289	-3.23
677.32	-22.23
677.351	-20.23
677.382	-16.23
677.412	-13.23
677.443	13.77
677.474	0.77
677.505	-10.23
677.535	-4.23
677.566	-7.23
677.597	-5.23
677.627	-16.23
677.658	-7.23
677.689	-5.23
677.72	-23.23
677.75	-9.23
677.781	2.77
677.812	0.77
677.842	7.77
677.873	-2.23
677.904	-14.23
677.934	-12.23
677.965	-7.23
677.996	-9.23
678.026	9.77
678.057	-4.23
678.088	-12.23
678.118	-3.23
678.149	-21.23
678.18	-7.23
678.21	2.77
678.241	-8.23
678.272	4.77
678.302	0.77
678.333	-0.23
678.363	7.77
678.394	2.77
678.425	8.77
678.455	-9.23
678.486	0.77
678.517	1.77
678.547	4.77
678.578	1.77
678.608	-5.23
678.639	-4.23
678.67	16.77
678.7	1.77
678.731	-3.23
678.761	-12.23
678.792	5.77
678.823	2.77
678.853	-6.23
678.884	-28.23
678.914	3.77
678.945	0.77
678.975	-6.23
679.006	-4.23
679.037	-3.23
679.067	13.77
679.098	-16.23
679.128	-4.23
679.159	8.77
679.189	-8.23
679.22	-10.23
679.25	-7.23
679.281	1.77
679.312	-1.23
679.342	-5.23
679.373	14.77
679.403	-1.23
679.434	11.77
679.464	-6.23
679.495	1.77
679.525	4.77
679.556	-12.23
679.586	4.77
679.617	-4.23
679.647	6.77
679.678	12.77
679.708	15.77
679.739	-8.23
679.769	3.77
679.8	-2.23
679.83	6.77
679.861	11.77
679.891	-7.23
679.922	-9.23
679.952	-3.23
679.983	-4.23
680.013	12.77
680.044	1.77
680.074	6.77
680.105	-4.23
680.135	4.77
680.165	9.77
680.196	11.77
680.226	8.77
680.257	15.77
680.287	1.77
680.318	0.77
680.348	-0.23
680.379	1.77
680.409	15.77
680.439	0.77
680.47	-1.23
680.5	-4.23
680.531	-12.23
680.561	29.77
680.592	9.77
680.622	29.77
680.652	4.77
680.683	13.77
680.713	-9.23
680.744	-5.23
680.774	2.77
680.804	8.77
680.835	1.77
680.865	-15.23
680.896	13.77
680.926	13.77
680.956	14.77
680.987	8.77
681.017	-21.23
681.047	5.77
681.078	-3.23
681.108	4.77
681.139	-13.23
681.169	-6.23
681.199	1.77
681.23	17.77
681.26	-5.23
681.29	-0.23
681.321	-16.23
681.351	0.77
681.381	-20.23
681.412	6.77
681.442	1.77
681.472	8.77
681.503	7.77
681.533	11.77
681.563	-0.23
681.594	1.77
681.624	5.77
681.654	-9.23
681.685	-1.23
681.715	7.77
681.745	-5.23
681.775	-2.23
681.806	-0.23
681.836	5.77
681.866	-10.23
681.897	-1.23
681.927	-16.23
681.957	-29.23
681.987	-9.23
682.018	-17.23
682.048	11.77
682.078	0.77
682.109	20.77
682.139	6.77
682.169	-13.23
682.199	-0.23
682.23	-9.23
682.26	-7.23
682.29	-5.23
682.32	1.77
682.351	-12.23
682.381	17.77
682.411	10.77
