Data from HighRes_H2_15_09_11_07_2024_HR4C61891__83__15-11-04-702.txt Node

Date: Thu Nov 07 15:11:04 EST 2024
User: crc00042
Spectrometer: HR4C6189
Trigger mode: 4
Integration Time (sec): 1.000000E-1
Scans to average: 1
Electric dark correction enabled: true
Nonlinearity correction enabled: false
Boxcar width: 0
XAxis mode: Wavelengths
Number of Pixels in Spectrum: 3648
>>>>>Begin Spectral Data<<<<<
639.567	-39.23
639.602	-39.23
639.636	-39.23
639.67	-43.23
639.704	-18.23
639.738	-11.23
639.773	6.77
639.807	-22.23
639.841	-8.23
639.875	16.77
639.909	7.77
639.943	-9.23
639.978	-7.23
640.012	10.77
640.046	7.77
640.08	8.77
640.114	2.77
640.148	-3.23
640.182	-11.23
640.217	-2.23
640.251	20.77
640.285	22.77
640.319	-3.23
640.353	2.77
640.387	-0.23
640.421	-0.23
640.455	2.77
640.49	-0.23
640.524	0.77
640.558	15.77
640.592	4.77
640.626	1.77
640.66	15.77
640.694	9.77
640.728	13.77
640.762	12.77
640.796	9.77
640.83	12.77
640.865	-8.23
640.899	-2.23
640.933	4.77
640.967	3.77
641.001	11.77
641.035	12.77
641.069	-0.23
641.103	-18.23
641.137	-4.23
641.171	-3.23
641.205	9.77
641.239	12.77
641.273	14.77
641.307	8.77
641.341	14.77
641.375	-2.23
641.409	7.77
641.443	0.77
641.477	-4.23
641.511	-1.23
641.545	3.77
641.579	3.77
641.614	6.77
641.648	16.77
641.682	8.77
641.716	16.77
641.75	22.77
641.784	15.77
641.818	7.77
641.852	8.77
641.886	7.77
641.919	17.77
641.953	2.77
641.987	-16.23
642.021	-3.23
642.055	8.77
642.089	-2.23
642.123	-7.23
642.157	9.77
642.191	6.77
642.225	8.77
642.259	8.77
642.293	8.77
642.327	10.77
642.361	-5.23
642.395	13.77
642.429	15.77
642.463	16.77
642.497	19.77
642.531	1.77
642.565	6.77
642.599	28.77
642.633	-4.23
642.666	10.77
642.7	-1.23
642.734	10.77
642.768	-7.23
642.802	9.77
642.836	9.77
642.87	-4.23
642.904	6.77
642.938	22.77
642.972	2.77
643.005	19.77
643.039	22.77
643.073	2.77
643.107	21.77
643.141	17.77
643.175	8.77
643.209	12.77
643.243	22.77
643.276	9.77
643.31	-3.23
643.344	9.77
643.378	23.77
643.412	8.77
643.446	6.77
643.48	10.77
643.513	5.77
643.547	10.77
643.581	-1.23
643.615	17.77
643.649	0.77
643.683	3.77
643.716	6.77
643.75	17.77
643.784	-7.23
643.818	9.77
643.852	1.77
643.886	3.77
643.919	21.77
643.953	3.77
643.987	2.77
644.021	24.77
644.055	14.77
644.088	-0.23
644.122	8.77
644.156	2.77
644.19	14.77
644.224	6.77
644.257	22.77
644.291	31.77
644.325	10.77
644.359	2.77
644.392	27.77
644.426	21.77
644.46	5.77
644.494	29.77
644.527	4.77
644.561	16.77
644.595	13.77
644.629	-3.23
644.662	-2.23
644.696	19.77
644.73	-1.23
644.764	6.77
644.797	-4.23
644.831	9.77
644.865	6.77
644.899	15.77
644.932	35.77
644.966	-1.23
645	-4.23
645.033	18.77
645.067	-18.23
645.101	6.77
645.135	-1.23
645.168	1.77
645.202	2.77
645.236	5.77
645.269	13.77
645.303	6.77
645.337	1.77
645.37	12.77
645.404	11.77
645.438	9.77
645.471	3.77
645.505	5.77
645.539	6.77
645.572	-0.23
645.606	8.77
645.64	18.77
645.673	16.77
645.707	26.77
645.741	5.77
645.774	-8.23
645.808	-10.23
645.842	-7.23
645.875	19.77
645.909	-9.23
645.943	0.77
645.976	8.77
646.01	9.77
646.043	26.77
646.077	10.77
646.111	14.77
646.144	9.77
646.178	30.77
646.212	-7.23
646.245	13.77
646.279	3.77
646.312	16.77
646.346	14.77
646.38	3.77
646.413	-9.23
646.447	18.77
646.48	11.77
646.514	6.77
646.547	-13.23
646.581	-0.23
646.615	9.77
646.648	9.77
646.682	-3.23
646.715	10.77
646.749	20.77
646.782	2.77
646.816	16.77
646.85	9.77
646.883	-1.23
646.917	4.77
646.95	-2.23
646.984	8.77
647.017	7.77
647.051	4.77
647.084	4.77
647.118	-4.23
647.151	5.77
647.185	-5.23
647.218	-8.23
647.252	18.77
647.285	-5.23
647.319	-15.23
647.353	9.77
647.386	34.77
647.42	0.77
647.453	3.77
647.487	11.77
647.52	9.77
647.553	16.77
647.587	1.77
647.62	15.77
647.654	18.77
647.687	30.77
647.721	12.77
647.754	13.77
647.788	11.77
647.821	7.77
647.855	13.77
647.888	10.77
647.922	24.77
647.955	7.77
647.989	16.77
648.022	4.77
648.055	17.77
648.089	-13.23
648.122	15.77
648.156	6.77
648.189	12.77
648.223	23.77
648.256	20.77
648.29	15.77
648.323	-1.23
648.356	7.77
648.39	7.77
648.423	2.77
648.457	4.77
648.49	3.77
648.523	9.77
648.557	10.77
648.59	5.77
648.624	8.77
648.657	10.77
648.69	26.77
648.724	18.77
648.757	16.77
648.791	5.77
648.824	22.77
648.857	29.77
648.891	4.77
648.924	17.77
648.957	20.77
648.991	8.77
649.024	7.77
649.057	-2.23
649.091	-0.23
649.124	10.77
649.158	29.77
649.191	26.77
649.224	10.77
649.258	18.77
649.291	28.77
649.324	5.77
649.358	10.77
649.391	21.77
649.424	6.77
649.458	-2.23
649.491	11.77
649.524	-4.23
649.557	-9.23
649.591	-11.23
649.624	3.77
649.657	-7.23
649.691	15.77
649.724	17.77
649.757	-2.23
649.791	4.77
649.824	10.77
649.857	1.77
649.89	10.77
649.924	0.77
649.957	11.77
649.99	-3.23
650.023	11.77
650.057	4.77
650.09	1.77
650.123	19.77
650.157	31.77
650.19	34.77
650.223	15.77
650.256	-7.23
650.29	13.77
650.323	-2.23
650.356	10.77
650.389	0.77
650.423	13.77
650.456	14.77
650.489	20.77
650.522	16.77
650.555	24.77
650.589	13.77
650.622	5.77
650.655	-0.23
650.688	13.77
650.721	13.77
650.755	12.77
650.788	16.77
650.821	6.77
650.854	2.77
650.887	11.77
650.921	0.77
650.954	-7.23
650.987	-3.23
651.02	-5.23
651.053	5.77
651.087	-10.23
651.12	9.77
651.153	7.77
651.186	16.77
651.219	6.77
651.252	4.77
651.286	2.77
651.319	5.77
651.352	0.77
651.385	20.77
651.418	9.77
651.451	33.77
651.484	9.77
651.518	-1.23
651.551	6.77
651.584	1.77
651.617	24.77
651.65	4.77
651.683	13.77
651.716	6.77
651.749	-10.23
651.783	-4.23
651.816	10.77
651.849	11.77
651.882	24.77
651.915	8.77
651.948	12.77
651.981	1.77
652.014	-2.23
652.047	-4.23
652.08	4.77
652.114	2.77
652.147	-3.23
652.18	4.77
652.213	37.77
652.246	-2.23
652.279	10.77
652.312	10.77
652.345	17.77
652.378	12.77
652.411	25.77
652.444	8.77
652.477	-0.23
652.51	13.77
652.543	-9.23
652.576	9.77
652.609	-1.23
652.642	15.77
652.675	16.77
652.709	10.77
652.742	18.77
652.775	2.77
652.808	4.77
652.841	2.77
652.874	-8.23
652.907	6.77
652.94	7.77
652.973	-17.23
653.006	5.77
653.039	0.77
653.072	9.77
653.105	-5.23
653.138	-16.23
653.171	-4.23
653.204	-3.23
653.237	-4.23
653.27	-1.23
653.303	19.77
653.336	7.77
653.368	6.77
653.401	8.77
653.434	6.77
653.467	-3.23
653.5	-10.23
653.533	-2.23
653.566	-13.23
653.599	12.77
653.632	13.77
653.665	15.77
653.698	1.77
653.731	3.77
653.764	9.77
653.797	17.77
653.83	15.77
653.863	11.77
653.896	0.77
653.929	-7.23
653.961	5.77
653.994	6.77
654.027	-0.23
654.06	8.77
654.093	20.77
654.126	1.77
654.159	-10.23
654.192	6.77
654.225	-1.23
654.258	-10.23
654.29	0.77
654.323	-16.23
654.356	-6.23
654.389	9.77
654.422	11.77
654.455	8.77
654.488	10.77
654.521	-8.23
654.553	-10.23
654.586	12.77
654.619	15.77
654.652	23.77
654.685	10.77
654.718	33.77
654.751	23.77
654.783	-16.23
654.816	11.77
654.849	9.77
654.882	-1.23
654.915	-9.23
654.948	8.77
654.98	0.77
655.013	8.77
655.046	-0.23
655.079	-4.23
655.112	0.77
655.144	-4.23
655.177	-0.23
655.21	16.77
655.243	11.77
655.276	16.77
655.308	8.77
655.341	1.77
655.374	3.77
655.407	12.77
655.44	6.77
655.472	22.77
655.505	29.77
655.538	15.77
655.571	25.77
655.603	6.77
655.636	13.77
655.669	30.77
655.702	19.77
655.734	2.77
655.767	11.77
655.8	29.77
655.833	23.77
655.865	28.77
655.898	25.77
655.931	22.77
655.964	24.77
655.996	68.77
656.029	67.77
656.062	56.77
656.095	65.77
656.127	76.77
656.16	105.77
656.193	129.77
656.225	165.77
656.258	278.77
656.291	491.77
656.324	1121.77
656.356	3356.77
656.389	7543.77
656.422	6006.77
656.454	2064.77
656.487	688.77
656.52	264.77
656.552	102.77
656.585	74.77
656.618	66.77
656.65	54.77
656.683	22.77
656.716	48.77
656.748	12.77
656.781	-2.23
656.814	23.77
656.846	24.77
656.879	13.77
656.912	18.77
656.944	-11.23
656.977	-7.23
657.01	-7.23
657.042	28.77
657.075	19.77
657.108	9.77
657.14	7.77
657.173	26.77
657.205	29.77
657.238	13.77
657.271	20.77
657.303	0.77
657.336	5.77
657.369	4.77
657.401	2.77
657.434	1.77
657.466	20.77
657.499	21.77
657.532	6.77
657.564	13.77
657.597	-1.23
657.629	18.77
657.662	0.77
657.694	12.77
657.727	7.77
657.76	7.77
657.792	-23.23
657.825	-3.23
657.857	0.77
657.89	0.77
657.922	13.77
657.955	3.77
657.987	19.77
658.02	14.77
658.053	13.77
658.085	11.77
658.118	11.77
658.15	9.77
658.183	22.77
658.215	3.77
658.248	4.77
658.28	7.77
658.313	13.77
658.345	17.77
658.378	-5.23
658.41	11.77
658.443	20.77
658.475	13.77
658.508	0.77
658.54	5.77
658.573	-0.23
658.605	22.77
658.638	4.77
658.67	10.77
658.703	10.77
658.735	-6.23
658.768	5.77
658.8	0.77
658.833	30.77
658.865	17.77
658.898	19.77
658.93	-2.23
658.963	-18.23
658.995	-7.23
659.028	-4.23
659.06	4.77
659.092	-3.23
659.125	9.77
659.157	20.77
659.19	10.77
659.222	0.77
659.255	7.77
659.287	6.77
659.32	1.77
659.352	16.77
659.384	18.77
659.417	22.77
659.449	20.77
659.482	12.77
659.514	6.77
659.546	9.77
659.579	-6.23
659.611	-0.23
659.644	-1.23
659.676	-0.23
659.708	-11.23
659.741	11.77
659.773	11.77
659.806	9.77
659.838	3.77
659.87	6.77
659.903	7.77
659.935	18.77
659.967	11.77
660	14.77
660.032	-10.23
660.065	16.77
660.097	-1.23
660.129	8.77
660.162	-6.23
660.194	8.77
660.226	23.77
660.259	-0.23
660.291	-1.23
660.323	4.77
660.356	-13.23
660.388	-11.23
660.42	-3.23
660.453	17.77
660.485	18.77
660.517	16.77
660.55	19.77
660.582	8.77
660.614	18.77
660.647	-6.23
660.679	-14.23
660.711	16.77
660.743	-7.23
660.776	3.77
660.808	8.77
660.84	3.77
660.873	6.77
660.905	3.77
660.937	-3.23
660.969	16.77
661.002	7.77
661.034	4.77
661.066	10.77
661.099	13.77
661.131	15.77
661.163	27.77
661.195	26.77
661.228	3.77
661.26	-15.23
661.292	5.77
661.324	5.77
661.357	8.77
661.389	1.77
661.421	12.77
661.453	18.77
661.485	4.77
661.518	11.77
661.55	-0.23
661.582	15.77
661.614	-1.23
661.647	15.77
661.679	9.77
661.711	18.77
661.743	7.77
661.775	2.77
661.808	21.77
661.84	-16.23
661.872	11.77
661.904	6.77
661.936	1.77
661.969	-5.23
662.001	-8.23
662.033	10.77
662.065	13.77
662.097	22.77
662.129	3.77
662.162	10.77
662.194	8.77
662.226	7.77
662.258	21.77
662.29	6.77
662.322	-8.23
662.355	0.77
662.387	8.77
662.419	7.77
662.451	12.77
662.483	20.77
662.515	-0.23
662.547	-1.23
662.58	3.77
662.612	11.77
662.644	-6.23
662.676	5.77
662.708	16.77
662.74	-4.23
662.772	-1.23
662.804	9.77
662.836	28.77
662.869	8.77
662.901	10.77
662.933	4.77
662.965	12.77
662.997	1.77
663.029	-3.23
663.061	12.77
663.093	9.77
663.125	10.77
663.157	13.77
663.189	10.77
663.221	11.77
663.254	4.77
663.286	8.77
663.318	11.77
663.35	3.77
663.382	-0.23
663.414	39.77
663.446	5.77
663.478	-14.23
663.51	25.77
663.542	-12.23
663.574	6.77
663.606	16.77
663.638	2.77
663.67	-3.23
663.702	7.77
663.734	6.77
663.766	4.77
663.798	-6.23
663.83	13.77
663.862	23.77
663.894	12.77
663.926	7.77
663.958	2.77
663.99	21.77
664.022	8.77
664.054	25.77
664.086	-1.23
664.118	-16.23
664.15	1.77
664.182	0.77
664.214	0.77
664.246	13.77
664.278	9.77
664.31	13.77
664.342	4.77
664.374	-16.23
664.406	0.77
664.438	-0.23
664.47	28.77
664.502	11.77
664.534	-5.23
664.566	-1.23
664.598	8.77
664.63	14.77
664.662	20.77
664.693	-0.23
664.725	-9.23
664.757	15.77
664.789	-16.23
664.821	2.77
664.853	20.77
664.885	6.77
664.917	-4.23
664.949	6.77
664.981	2.77
665.013	12.77
665.045	-3.23
665.076	-5.23
665.108	2.77
665.14	7.77
665.172	5.77
665.204	6.77
665.236	5.77
665.268	29.77
665.3	10.77
665.331	-5.23
665.363	-4.23
665.395	-9.23
665.427	2.77
665.459	6.77
665.491	6.77
665.523	4.77
665.555	8.77
665.586	18.77
665.618	-2.23
665.65	-3.23
665.682	-0.23
665.714	6.77
665.746	-12.23
665.777	9.77
665.809	9.77
665.841	11.77
665.873	1.77
665.905	12.77
665.937	20.77
665.968	5.77
666	8.77
666.032	7.77
666.064	-0.23
666.096	8.77
666.127	10.77
666.159	21.77
666.191	9.77
666.223	-4.23
666.255	7.77
666.286	6.77
666.318	6.77
666.35	30.77
666.382	23.77
666.413	-0.23
666.445	1.77
666.477	-8.23
666.509	-6.23
666.54	24.77
666.572	15.77
666.604	5.77
666.636	11.77
666.667	14.77
666.699	21.77
666.731	16.77
666.763	4.77
666.794	-2.23
666.826	3.77
666.858	-0.23
666.89	22.77
666.921	20.77
666.953	8.77
666.985	16.77
667.017	26.77
667.048	22.77
667.08	8.77
667.112	-14.23
667.143	-8.23
667.175	7.77
667.207	8.77
667.238	7.77
667.27	-0.23
667.302	-8.23
667.334	-2.23
667.365	12.77
667.397	8.77
667.429	7.77
667.46	5.77
667.492	11.77
667.524	-5.23
667.555	-1.23
667.587	11.77
667.619	-11.23
667.65	4.77
667.682	0.77
667.714	15.77
667.745	20.77
667.777	13.77
667.808	4.77
667.84	18.77
667.872	-7.23
667.903	17.77
667.935	-0.23
667.967	-8.23
667.998	1.77
668.03	-7.23
668.061	15.77
668.093	7.77
668.125	22.77
668.156	15.77
668.188	4.77
668.22	0.77
668.251	3.77
668.283	0.77
668.314	20.77
668.346	-16.23
668.377	14.77
668.409	-7.23
668.441	25.77
668.472	8.77
668.504	-12.23
668.535	7.77
668.567	29.77
668.599	2.77
668.63	2.77
668.662	-9.23
668.693	26.77
668.725	8.77
668.756	15.77
668.788	10.77
668.819	13.77
668.851	3.77
668.882	6.77
668.914	15.77
668.946	4.77
668.977	-9.23
669.009	-11.23
669.04	-30.23
669.072	10.77
669.103	18.77
669.135	4.77
669.166	1.77
669.198	7.77
669.229	0.77
669.261	5.77
669.292	-17.23
669.324	6.77
669.355	11.77
669.387	-7.23
669.418	16.77
669.45	-0.23
669.481	-3.23
669.513	0.77
669.544	17.77
669.576	5.77
669.607	11.77
669.639	26.77
669.67	3.77
669.701	14.77
669.733	-6.23
669.764	-6.23
669.796	5.77
669.827	-2.23
669.859	4.77
669.89	1.77
669.922	13.77
669.953	11.77
669.985	14.77
670.016	14.77
670.047	-6.23
670.079	11.77
670.11	0.77
670.142	6.77
670.173	1.77
670.204	-1.23
670.236	1.77
670.267	-1.23
670.299	0.77
670.33	16.77
670.362	21.77
670.393	-4.23
670.424	18.77
670.456	-3.23
670.487	2.77
670.518	-4.23
670.55	-8.23
670.581	13.77
670.613	5.77
670.644	-8.23
670.675	-5.23
670.707	-4.23
670.738	1.77
670.769	-0.23
670.801	-5.23
670.832	15.77
670.864	-7.23
670.895	13.77
670.926	-5.23
670.958	2.77
670.989	7.77
671.02	-3.23
671.052	2.77
671.083	4.77
671.114	-6.23
671.146	2.77
671.177	11.77
671.208	-0.23
671.24	-12.23
671.271	2.77
671.302	8.77
671.333	2.77
671.365	17.77
671.396	8.77
671.427	3.77
671.459	11.77
671.49	25.77
671.521	2.77
671.553	8.77
671.584	23.77
671.615	-3.23
671.646	2.77
671.678	0.77
671.709	5.77
671.74	-25.23
671.771	-4.23
671.803	11.77
671.834	2.77
671.865	6.77
671.896	2.77
671.928	-1.23
671.959	1.77
671.99	3.77
672.021	16.77
672.053	5.77
672.084	3.77
672.115	-5.23
672.146	4.77
672.178	-1.23
672.209	10.77
672.24	4.77
672.271	21.77
672.303	7.77
672.334	12.77
672.365	-10.23
672.396	4.77
672.427	4.77
672.459	8.77
672.49	23.77
672.521	-2.23
672.552	13.77
672.583	12.77
672.615	6.77
672.646	10.77
672.677	9.77
672.708	-8.23
672.739	13.77
672.77	16.77
672.802	1.77
672.833	-2.23
672.864	11.77
672.895	-4.23
672.926	4.77
672.957	6.77
672.989	-8.23
673.02	-3.23
673.051	-2.23
673.082	31.77
673.113	2.77
673.144	7.77
673.175	8.77
673.206	4.77
673.238	8.77
673.269	7.77
673.3	-13.23
673.331	7.77
673.362	1.77
673.393	-0.23
673.424	8.77
673.455	7.77
673.487	10.77
673.518	8.77
673.549	9.77
673.58	3.77
673.611	-1.23
673.642	12.77
673.673	-2.23
673.704	14.77
673.735	18.77
673.766	7.77
673.797	8.77
673.828	4.77
673.86	-5.23
673.891	-12.23
673.922	-10.23
673.953	-11.23
673.984	-6.23
674.015	5.77
674.046	4.77
674.077	11.77
674.108	-1.23
674.139	1.77
674.17	14.77
674.201	8.77
674.232	-4.23
674.263	-0.23
674.294	-1.23
674.325	-10.23
674.356	5.77
674.387	21.77
674.418	3.77
674.449	-1.23
674.48	-2.23
674.511	-0.23
674.542	0.77
674.573	-5.23
674.604	0.77
674.635	-1.23
674.666	14.77
674.697	7.77
674.728	2.77
674.759	17.77
674.79	-8.23
674.821	9.77
674.852	31.77
674.883	-7.23
674.914	-2.23
674.945	-3.23
674.976	6.77
675.007	3.77
675.038	-7.23
675.069	-2.23
675.1	4.77
675.131	7.77
675.162	6.77
675.193	-3.23
675.224	-2.23
675.254	20.77
675.285	16.77
675.316	18.77
675.347	15.77
675.378	12.77
675.409	-6.23
675.44	15.77
675.471	2.77
675.502	-3.23
675.533	-0.23
675.564	3.77
675.595	5.77
675.625	28.77
675.656	13.77
675.687	9.77
675.718	-16.23
675.749	10.77
675.78	-3.23
675.811	-1.23
675.842	17.77
675.873	-0.23
675.903	-11.23
675.934	9.77
675.965	0.77
675.996	5.77
676.027	1.77
676.058	0.77
676.089	-22.23
676.119	-7.23
676.15	2.77
676.181	3.77
676.212	4.77
676.243	17.77
676.274	7.77
676.304	13.77
676.335	-10.23
676.366	15.77
676.397	1.77
676.428	-21.23
676.459	3.77
676.489	14.77
676.52	4.77
676.551	9.77
676.582	16.77
676.613	7.77
676.643	-4.23
676.674	1.77
676.705	9.77
676.736	10.77
676.767	10.77
676.797	37.77
676.828	32.77
676.859	-2.23
676.89	17.77
676.92	10.77
676.951	16.77
676.982	13.77
677.013	14.77
677.044	18.77
677.074	2.77
677.105	-16.23
677.136	13.77
677.167	-4.23
677.197	12.77
677.228	-3.23
677.259	1.77
677.289	3.77
677.32	-10.23
677.351	-4.23
677.382	-1.23
677.412	3.77
677.443	6.77
677.474	-0.23
677.505	-12.23
677.535	8.77
677.566	-6.23
677.597	-3.23
677.627	6.77
677.658	3.77
677.689	1.77
677.72	-0.23
677.75	10.77
677.781	-3.23
677.812	5.77
677.842	24.77
677.873	24.77
677.904	4.77
677.934	-8.23
677.965	-6.23
677.996	-10.23
678.026	8.77
678.057	-0.23
678.088	2.77
678.118	4.77
678.149	-5.23
678.18	11.77
678.21	-6.23
678.241	-0.23
678.272	3.77
678.302	3.77
678.333	13.77
678.363	9.77
678.394	17.77
678.425	8.77
678.455	18.77
678.486	5.77
678.517	18.77
678.547	11.77
678.578	-3.23
678.608	-17.23
678.639	4.77
678.67	0.77
678.7	4.77
678.731	8.77
678.761	14.77
678.792	10.77
678.823	9.77
678.853	-4.23
678.884	-10.23
678.914	-8.23
678.945	-2.23
678.975	7.77
679.006	15.77
679.037	1.77
679.067	17.77
679.098	7.77
679.128	7.77
679.159	9.77
679.189	17.77
679.22	-10.23
679.25	10.77
679.281	5.77
679.312	3.77
679.342	5.77
679.373	50.77
679.403	5.77
679.434	10.77
679.464	-5.23
679.495	16.77
679.525	9.77
679.556	-4.23
679.586	9.77
679.617	9.77
679.647	7.77
679.678	-4.23
679.708	16.77
679.739	18.77
679.769	7.77
679.8	12.77
679.83	-0.23
679.861	12.77
679.891	14.77
679.922	-19.23
679.952	2.77
679.983	13.77
680.013	25.77
680.044	3.77
680.074	13.77
680.105	17.77
680.135	6.77
680.165	12.77
680.196	6.77
680.226	9.77
680.257	6.77
680.287	1.77
680.318	2.77
680.348	-11.23
680.379	11.77
680.409	-5.23
680.439	8.77
680.47	1.77
680.5	9.77
680.531	1.77
680.561	11.77
680.592	8.77
680.622	25.77
680.652	7.77
680.683	10.77
680.713	-6.23
680.744	-3.23
680.774	-2.23
680.804	16.77
680.835	-2.23
680.865	-1.23
680.896	12.77
680.926	26.77
680.956	18.77
680.987	3.77
681.017	7.77
681.047	1.77
681.078	-6.23
681.108	7.77
681.139	0.77
681.169	-6.23
681.199	5.77
681.23	4.77
681.26	17.77
681.29	10.77
681.321	-3.23
681.351	13.77
681.381	3.77
681.412	16.77
681.442	12.77
681.472	23.77
681.503	28.77
681.533	10.77
681.563	-2.23
681.594	-0.23
681.624	13.77
681.654	-3.23
681.685	13.77
681.715	8.77
681.745	7.77
681.775	8.77
681.806	5.77
681.836	-0.23
681.866	-7.23
681.897	-4.23
681.927	1.77
681.957	-2.23
681.987	5.77
682.018	1.77
682.048	14.77
682.078	2.77
682.109	22.77
682.139	11.77
682.169	4.77
682.199	11.77
682.23	-11.23
682.26	-1.23
682.29	2.77
682.32	7.77
682.351	-2.23
682.381	9.77
682.411	7.77
682.441	5.77
682.472	-0.23
682.502	9.77
682.532	0.77
682.562	3.77
682.592	25.77
682.623	9.77
682.653	5.77
682.683	-5.23
682.713	5.77
682.743	4.77
682.774	-7.23
682.804	0.77
682.834	21.77
