Data from HighRes_H2_15_09_11_07_2024_HR4C61891__76__15-11-04-002.txt Node

Date: Thu Nov 07 15:11:04 EST 2024
User: crc00042
Spectrometer: HR4C6189
Trigger mode: 4
Integration Time (sec): 1.000000E-1
Scans to average: 1
Electric dark correction enabled: true
Nonlinearity correction enabled: false
Boxcar width: 0
XAxis mode: Wavelengths
Number of Pixels in Spectrum: 3648
>>>>>Begin Spectral Data<<<<<
639.567	-48.92
639.602	-48.92
639.636	-48.92
639.67	-44.92
639.704	-18.92
639.738	-6.92
639.773	6.08
639.807	-24.92
639.841	5.08
639.875	21.08
639.909	-12.92
639.943	-12.92
639.978	5.08
640.012	11.08
640.046	5.08
640.08	7.08
640.114	-4.92
640.148	2.08
640.182	-9.92
640.217	-5.92
640.251	11.08
640.285	11.08
640.319	1.08
640.353	-0.92
640.387	-1.92
640.421	0.08
640.455	-14.92
640.49	-10.92
640.524	-0.92
640.558	18.08
640.592	-6.92
640.626	2.08
640.66	5.08
640.694	-6.92
640.728	15.08
640.762	12.08
640.796	14.08
640.83	8.08
640.865	-3.92
640.899	5.08
640.933	0.08
640.967	3.08
641.001	7.08
641.035	1.08
641.069	-11.92
641.103	-5.92
641.137	12.08
641.171	-15.92
641.205	5.08
641.239	2.08
641.273	23.08
641.307	7.08
641.341	-4.92
641.375	3.08
641.409	0.08
641.443	3.08
641.477	20.08
641.511	8.08
641.545	1.08
641.579	2.08
641.614	-3.92
641.648	11.08
641.682	-2.92
641.716	18.08
641.75	21.08
641.784	0.08
641.818	16.08
641.852	8.08
641.886	3.08
641.919	19.08
641.953	3.08
641.987	-6.92
642.021	-5.92
642.055	14.08
642.089	3.08
642.123	-1.92
642.157	3.08
642.191	-11.92
642.225	6.08
642.259	-0.92
642.293	19.08
642.327	1.08
642.361	1.08
642.395	16.08
642.429	11.08
642.463	11.08
642.497	1.08
642.531	6.08
642.565	-0.92
642.599	3.08
642.633	-21.92
642.666	10.08
642.7	36.08
642.734	30.08
642.768	-3.92
642.802	4.08
642.836	13.08
642.87	13.08
642.904	14.08
642.938	3.08
642.972	5.08
643.005	7.08
643.039	30.08
643.073	3.08
643.107	6.08
643.141	16.08
643.175	11.08
643.209	-0.92
643.243	2.08
643.276	5.08
643.31	9.08
643.344	-1.92
643.378	10.08
643.412	16.08
643.446	10.08
643.48	-10.92
643.513	-0.92
643.547	7.08
643.581	3.08
643.615	17.08
643.649	-4.92
643.683	3.08
643.716	8.08
643.75	7.08
643.784	0.08
643.818	3.08
643.852	-5.92
643.886	32.08
643.919	27.08
643.953	-0.92
643.987	3.08
644.021	12.08
644.055	10.08
644.088	-7.92
644.122	-5.92
644.156	-0.92
644.19	0.08
644.224	4.08
644.257	8.08
644.291	16.08
644.325	17.08
644.359	6.08
644.392	9.08
644.426	13.08
644.46	10.08
644.494	24.08
644.527	-16.92
644.561	-8.92
644.595	12.08
644.629	1.08
644.662	16.08
644.696	15.08
644.73	5.08
644.764	18.08
644.797	0.08
644.831	10.08
644.865	3.08
644.899	2.08
644.932	15.08
644.966	-2.92
645	11.08
645.033	26.08
645.067	9.08
645.101	-4.92
645.135	-2.92
645.168	9.08
645.202	-21.92
645.236	-2.92
645.269	25.08
645.303	8.08
645.337	-16.92
645.37	-11.92
645.404	18.08
645.438	10.08
645.471	8.08
645.505	15.08
645.539	1.08
645.572	-3.92
645.606	-0.92
645.64	-1.92
645.673	9.08
645.707	28.08
645.741	14.08
645.774	1.08
645.808	14.08
645.842	-3.92
645.875	22.08
645.909	-8.92
645.943	3.08
645.976	-5.92
646.01	2.08
646.043	14.08
646.077	11.08
646.111	13.08
646.144	26.08
646.178	27.08
646.212	-5.92
646.245	13.08
646.279	16.08
646.312	4.08
646.346	7.08
646.38	-1.92
646.413	-9.92
646.447	7.08
646.48	4.08
646.514	21.08
646.547	-5.92
646.581	5.08
646.615	-1.92
646.648	-15.92
646.682	-2.92
646.715	12.08
646.749	11.08
646.782	-1.92
646.816	-2.92
646.85	-0.92
646.883	8.08
646.917	26.08
646.95	22.08
646.984	6.08
647.017	12.08
647.051	14.08
647.084	9.08
647.118	-0.92
647.151	-1.92
647.185	-1.92
647.218	-12.92
647.252	-5.92
647.285	-10.92
647.319	-8.92
647.353	-9.92
647.386	18.08
647.42	2.08
647.453	8.08
647.487	18.08
647.52	9.08
647.553	1.08
647.587	20.08
647.62	7.08
647.654	10.08
647.687	14.08
647.721	16.08
647.754	2.08
647.788	5.08
647.821	-4.92
647.855	14.08
647.888	20.08
647.922	8.08
647.955	7.08
647.989	1.08
648.022	-3.92
648.055	9.08
648.089	2.08
648.122	25.08
648.156	11.08
648.189	5.08
648.223	14.08
648.256	12.08
648.29	22.08
648.323	5.08
648.356	14.08
648.39	11.08
648.423	3.08
648.457	-6.92
648.49	5.08
648.523	14.08
648.557	2.08
648.59	1.08
648.624	-8.92
648.657	4.08
648.69	21.08
648.724	14.08
648.757	11.08
648.791	11.08
648.824	16.08
648.857	14.08
648.891	9.08
648.924	13.08
648.957	30.08
648.991	2.08
649.024	18.08
649.057	-4.92
649.091	4.08
649.124	14.08
649.158	7.08
649.191	34.08
649.224	8.08
649.258	17.08
649.291	11.08
649.324	12.08
649.358	-8.92
649.391	16.08
649.424	14.08
649.458	11.08
649.491	-6.92
649.524	-9.92
649.557	9.08
649.591	-11.92
649.624	10.08
649.657	-8.92
649.691	4.08
649.724	7.08
649.757	10.08
649.791	4.08
649.824	10.08
649.857	-2.92
649.89	1.08
649.924	-2.92
649.957	2.08
649.99	-4.92
650.023	7.08
650.057	2.08
650.09	5.08
650.123	4.08
650.157	20.08
650.19	11.08
650.223	13.08
650.256	7.08
650.29	-0.92
650.323	7.08
650.356	4.08
650.389	7.08
650.423	-5.92
650.456	8.08
650.489	28.08
650.522	20.08
650.555	-0.92
650.589	12.08
650.622	2.08
650.655	20.08
650.688	11.08
650.721	-2.92
650.755	14.08
650.788	13.08
650.821	6.08
650.854	7.08
650.887	9.08
650.921	1.08
650.954	1.08
650.987	7.08
651.02	7.08
651.053	-18.92
651.087	-9.92
651.12	22.08
651.153	-0.92
651.186	-3.92
651.219	8.08
651.252	10.08
651.286	9.08
651.319	7.08
651.352	12.08
651.385	15.08
651.418	17.08
651.451	6.08
651.484	12.08
651.518	-7.92
651.551	17.08
651.584	-13.92
651.617	6.08
651.65	12.08
651.683	35.08
651.716	8.08
651.749	-10.92
651.783	-4.92
651.816	3.08
651.849	15.08
651.882	-1.92
651.915	-2.92
651.948	13.08
651.981	-2.92
652.014	-23.92
652.047	9.08
652.08	-5.92
652.114	9.08
652.147	9.08
652.18	14.08
652.213	37.08
652.246	-4.92
652.279	-2.92
652.312	-6.92
652.345	3.08
652.378	19.08
652.411	21.08
652.444	15.08
652.477	12.08
652.51	7.08
652.543	-1.92
652.576	7.08
652.609	7.08
652.642	3.08
652.675	11.08
652.709	7.08
652.742	8.08
652.775	15.08
652.808	12.08
652.841	-1.92
652.874	12.08
652.907	4.08
652.94	-1.92
652.973	-12.92
653.006	-2.92
653.039	12.08
653.072	-0.92
653.105	1.08
653.138	2.08
653.171	9.08
653.204	1.08
653.237	15.08
653.27	8.08
653.303	19.08
653.336	-9.92
653.368	14.08
653.401	6.08
653.434	4.08
653.467	12.08
653.5	-10.92
653.533	-3.92
653.566	3.08
653.599	5.08
653.632	3.08
653.665	4.08
653.698	-21.92
653.731	2.08
653.764	2.08
653.797	-0.92
653.83	15.08
653.863	19.08
653.896	9.08
653.929	8.08
653.961	20.08
653.994	-1.92
654.027	-4.92
654.06	7.08
654.093	16.08
654.126	13.08
654.159	-13.92
654.192	-2.92
654.225	2.08
654.258	6.08
654.29	-1.92
654.323	6.08
654.356	13.08
654.389	3.08
654.422	-4.92
654.455	-3.92
654.488	5.08
654.521	-11.92
654.553	-13.92
654.586	18.08
654.619	5.08
654.652	13.08
654.685	20.08
654.718	17.08
654.751	21.08
654.783	-3.92
654.816	7.08
654.849	7.08
654.882	4.08
654.915	6.08
654.948	9.08
654.98	3.08
655.013	3.08
655.046	2.08
655.079	14.08
655.112	15.08
655.144	-7.92
655.177	6.08
655.21	22.08
655.243	9.08
655.276	10.08
655.308	4.08
655.341	5.08
655.374	17.08
655.407	-1.92
655.44	7.08
655.472	15.08
655.505	3.08
655.538	5.08
655.571	26.08
655.603	10.08
655.636	14.08
655.669	26.08
655.702	18.08
655.734	8.08
655.767	16.08
655.8	23.08
655.833	34.08
655.865	41.08
655.898	32.08
655.931	46.08
655.964	67.08
655.996	46.08
656.029	70.08
656.062	70.08
656.095	79.08
656.127	77.08
656.16	99.08
656.193	144.08
656.225	189.08
656.258	288.08
656.291	558.08
656.324	1166.08
656.356	3499.08
656.389	7773.08
656.422	6307.08
656.454	2152.08
656.487	719.08
656.52	278.08
656.552	125.08
656.585	72.08
656.618	58.08
656.65	43.08
656.683	29.08
656.716	27.08
656.748	11.08
656.781	3.08
656.814	-6.92
656.846	0.08
656.879	16.08
656.912	7.08
656.944	-9.92
656.977	-9.92
657.01	-16.92
657.042	8.08
657.075	31.08
657.108	-3.92
657.14	20.08
657.173	15.08
657.205	23.08
657.238	7.08
657.271	2.08
657.303	-2.92
657.336	16.08
657.369	6.08
657.401	3.08
657.434	7.08
657.466	20.08
657.499	4.08
657.532	10.08
657.564	12.08
657.597	11.08
657.629	12.08
657.662	2.08
657.694	9.08
657.727	-17.92
657.76	26.08
657.792	-4.92
657.825	5.08
657.857	10.08
657.89	-5.92
657.922	16.08
657.955	-7.92
657.987	-5.92
658.02	21.08
658.053	15.08
658.085	4.08
658.118	-1.92
658.15	8.08
658.183	22.08
658.215	20.08
658.248	10.08
658.28	2.08
658.313	7.08
658.345	22.08
658.378	-8.92
658.41	-3.92
658.443	11.08
658.475	-5.92
658.508	-1.92
658.54	-6.92
658.573	5.08
658.605	6.08
658.638	-2.92
658.67	-5.92
658.703	10.08
658.735	-11.92
658.768	-3.92
658.8	-19.92
658.833	20.08
658.865	25.08
658.898	17.08
658.93	-10.92
658.963	-6.92
658.995	-32.92
659.028	-11.92
659.06	1.08
659.092	4.08
659.125	-8.92
659.157	-4.92
659.19	-4.92
659.222	9.08
659.255	28.08
659.287	6.08
659.32	2.08
659.352	-4.92
659.384	3.08
659.417	-7.92
659.449	-6.92
659.482	15.08
659.514	-9.92
659.546	2.08
659.579	-5.92
659.611	7.08
659.644	3.08
659.676	-14.92
659.708	-3.92
659.741	-6.92
659.773	-0.92
659.806	13.08
659.838	-2.92
659.87	-0.92
659.903	-15.92
659.935	4.08
659.967	14.08
660	5.08
660.032	-16.92
660.065	12.08
660.097	1.08
660.129	15.08
660.162	-0.92
660.194	2.08
660.226	-8.92
660.259	4.08
660.291	0.08
660.323	-8.92
660.356	5.08
660.388	-13.92
660.42	-3.92
660.453	14.08
660.485	25.08
660.517	2.08
660.55	0.08
660.582	-5.92
660.614	8.08
660.647	-5.92
660.679	-5.92
660.711	9.08
660.743	-13.92
660.776	-4.92
660.808	-6.92
660.84	-7.92
660.873	-12.92
660.905	-1.92
660.937	-1.92
660.969	5.08
661.002	3.08
661.034	10.08
661.066	-15.92
661.099	-0.92
661.131	19.08
661.163	-2.92
661.195	11.08
661.228	16.08
661.26	-14.92
661.292	-4.92
661.324	7.08
661.357	1.08
661.389	0.08
661.421	4.08
661.453	2.08
661.485	-2.92
661.518	-8.92
661.55	-2.92
661.582	-18.92
661.614	-0.92
661.647	-1.92
661.679	2.08
661.711	13.08
661.743	-2.92
661.775	-3.92
661.808	12.08
661.84	-4.92
661.872	0.08
661.904	-3.92
661.936	-5.92
661.969	-10.92
662.001	0.08
662.033	9.08
662.065	0.08
662.097	5.08
662.129	3.08
662.162	-10.92
662.194	6.08
662.226	-7.92
662.258	10.08
662.29	9.08
662.322	-6.92
662.355	-20.92
662.387	20.08
662.419	21.08
662.451	23.08
662.483	13.08
662.515	1.08
662.547	-7.92
662.58	-3.92
662.612	2.08
662.644	-7.92
662.676	12.08
662.708	5.08
662.74	8.08
662.772	5.08
662.804	9.08
662.836	8.08
662.869	-0.92
662.901	14.08
662.933	3.08
662.965	19.08
662.997	-0.92
663.029	-1.92
663.061	-23.92
663.093	-1.92
663.125	16.08
663.157	14.08
663.189	11.08
663.221	8.08
663.254	10.08
663.286	29.08
663.318	-2.92
663.35	4.08
663.382	-8.92
663.414	4.08
663.446	4.08
663.478	-7.92
663.51	23.08
663.542	-2.92
663.574	-5.92
663.606	6.08
663.638	-7.92
663.67	-19.92
663.702	-6.92
663.734	10.08
663.766	11.08
663.798	4.08
663.83	4.08
663.862	-6.92
663.894	4.08
663.926	7.08
663.958	14.08
663.99	-7.92
664.022	11.08
664.054	7.08
664.086	3.08
664.118	7.08
664.15	-3.92
664.182	-1.92
664.214	-9.92
664.246	13.08
664.278	12.08
664.31	12.08
664.342	16.08
664.374	12.08
664.406	-5.92
664.438	6.08
664.47	22.08
664.502	0.08
664.534	1.08
664.566	-19.92
664.598	4.08
664.63	-5.92
664.662	6.08
664.693	14.08
664.725	-15.92
664.757	-9.92
664.789	0.08
664.821	13.08
664.853	16.08
664.885	-1.92
664.917	-15.92
664.949	24.08
664.981	12.08
665.013	13.08
665.045	-5.92
665.076	5.08
665.108	5.08
665.14	-12.92
665.172	-0.92
665.204	-8.92
665.236	-1.92
665.268	24.08
665.3	1.08
665.331	-13.92
665.363	3.08
665.395	3.08
665.427	0.08
665.459	16.08
665.491	2.08
665.523	-8.92
665.555	5.08
665.586	6.08
665.618	5.08
665.65	-5.92
665.682	9.08
665.714	2.08
665.746	0.08
665.777	6.08
665.809	-10.92
665.841	6.08
665.873	-13.92
665.905	-4.92
665.937	8.08
665.968	-6.92
666	-18.92
666.032	19.08
666.064	3.08
666.096	0.08
666.127	11.08
666.159	9.08
666.191	2.08
666.223	7.08
666.255	3.08
666.286	6.08
666.318	6.08
666.35	27.08
666.382	7.08
666.413	-17.92
666.445	14.08
666.477	2.08
666.509	7.08
666.54	3.08
666.572	-6.92
666.604	3.08
666.636	-1.92
666.667	6.08
666.699	17.08
666.731	-5.92
666.763	-14.92
666.794	-3.92
666.826	13.08
666.858	-14.92
666.89	10.08
666.921	-8.92
666.953	4.08
666.985	13.08
667.017	20.08
667.048	12.08
667.08	6.08
667.112	1.08
667.143	-8.92
667.175	4.08
667.207	-1.92
667.238	-5.92
667.27	9.08
667.302	18.08
667.334	18.08
667.365	25.08
667.397	3.08
667.429	4.08
667.46	16.08
667.492	18.08
667.524	-11.92
667.555	5.08
667.587	6.08
667.619	15.08
667.65	-3.92
667.682	7.08
667.714	14.08
667.745	7.08
667.777	21.08
667.808	10.08
667.84	-8.92
667.872	-2.92
667.903	23.08
667.935	3.08
667.967	15.08
667.998	6.08
668.03	-2.92
668.061	8.08
668.093	-6.92
668.125	6.08
668.156	10.08
668.188	-9.92
668.22	-21.92
668.251	13.08
668.283	5.08
668.314	14.08
668.346	6.08
668.377	9.08
668.409	6.08
668.441	8.08
668.472	9.08
668.504	2.08
668.535	3.08
668.567	1.08
668.599	-0.92
668.63	5.08
668.662	0.08
668.693	20.08
668.725	13.08
668.756	7.08
668.788	1.08
668.819	10.08
668.851	4.08
668.882	16.08
668.914	-5.92
668.946	11.08
668.977	5.08
669.009	8.08
669.04	-8.92
669.072	5.08
669.103	-3.92
669.135	-5.92
669.166	6.08
669.198	4.08
669.229	6.08
669.261	-7.92
669.292	19.08
669.324	-6.92
669.355	-1.92
669.387	-6.92
669.418	14.08
669.45	-1.92
669.481	10.08
669.513	11.08
669.544	-4.92
669.576	-5.92
669.607	15.08
669.639	8.08
669.67	-4.92
669.701	11.08
669.733	-14.92
669.764	-2.92
669.796	-12.92
669.827	3.08
669.859	7.08
669.89	23.08
669.922	6.08
669.953	7.08
669.985	3.08
670.016	13.08
670.047	7.08
670.079	-2.92
670.11	4.08
670.142	10.08
670.173	6.08
670.204	4.08
670.236	16.08
670.267	3.08
670.299	1.08
670.33	7.08
670.362	11.08
670.393	-14.92
670.424	1.08
670.456	-13.92
670.487	-6.92
670.518	2.08
670.55	6.08
670.581	9.08
670.613	20.08
670.644	-2.92
670.675	-0.92
670.707	4.08
670.738	25.08
670.769	1.08
670.801	-8.92
670.832	3.08
670.864	-13.92
670.895	8.08
670.926	15.08
670.958	0.08
670.989	-3.92
671.02	-8.92
671.052	13.08
671.083	3.08
671.114	-5.92
671.146	1.08
671.177	5.08
671.208	-11.92
671.24	8.08
671.271	7.08
671.302	11.08
671.333	-5.92
671.365	-2.92
671.396	5.08
671.427	-1.92
671.459	8.08
671.49	10.08
671.521	25.08
671.553	10.08
671.584	17.08
671.615	-8.92
671.646	4.08
671.678	8.08
671.709	-9.92
671.74	-10.92
671.771	8.08
671.803	8.08
671.834	7.08
671.865	-4.92
671.896	8.08
671.928	6.08
671.959	-16.92
671.99	-11.92
672.021	-7.92
672.053	-16.92
672.084	-2.92
672.115	8.08
672.146	-4.92
672.178	-13.92
672.209	16.08
672.24	-4.92
672.271	27.08
672.303	4.08
672.334	11.08
672.365	3.08
672.396	-1.92
672.427	3.08
672.459	13.08
672.49	15.08
672.521	23.08
672.552	19.08
672.583	11.08
672.615	11.08
672.646	16.08
672.677	-8.92
672.708	7.08
672.739	9.08
672.77	14.08
672.802	-4.92
672.833	-10.92
672.864	13.08
672.895	-4.92
672.926	-5.92
672.957	-5.92
672.989	-10.92
673.02	11.08
673.051	-0.92
673.082	10.08
673.113	4.08
673.144	7.08
673.175	19.08
673.206	-0.92
673.238	-14.92
673.269	4.08
673.3	4.08
673.331	5.08
673.362	1.08
673.393	10.08
673.424	10.08
673.455	21.08
673.487	7.08
673.518	20.08
673.549	11.08
673.58	23.08
673.611	9.08
673.642	0.08
673.673	-17.92
673.704	9.08
673.735	0.08
673.766	-11.92
673.797	-0.92
673.828	7.08
673.86	-0.92
673.891	-10.92
673.922	-10.92
673.953	-14.92
673.984	11.08
674.015	7.08
674.046	10.08
674.077	-2.92
674.108	-9.92
674.139	-0.92
674.17	-6.92
674.201	0.08
674.232	-3.92
674.263	-4.92
674.294	-11.92
674.325	-23.92
674.356	3.08
674.387	8.08
674.418	10.08
674.449	-11.92
674.48	-17.92
674.511	-9.92
674.542	3.08
674.573	-18.92
674.604	24.08
674.635	2.08
674.666	8.08
674.697	14.08
674.728	15.08
674.759	-15.92
674.79	-5.92
674.821	2.08
674.852	7.08
674.883	6.08
674.914	-4.92
674.945	-9.92
674.976	-8.92
675.007	6.08
675.038	-5.92
675.069	-11.92
675.1	-5.92
675.131	15.08
675.162	-4.92
675.193	-10.92
675.224	2.08
675.254	0.08
675.285	16.08
675.316	13.08
675.347	7.08
675.378	-11.92
675.409	-4.92
675.44	21.08
675.471	4.08
675.502	-7.92
675.533	-0.92
675.564	6.08
675.595	-5.92
675.625	20.08
675.656	2.08
675.687	2.08
675.718	-3.92
675.749	12.08
675.78	13.08
675.811	8.08
675.842	12.08
675.873	5.08
675.903	-8.92
675.934	-6.92
675.965	5.08
675.996	1.08
676.027	11.08
676.058	2.08
676.089	-13.92
676.119	-1.92
676.15	9.08
676.181	22.08
676.212	-5.92
676.243	8.08
676.274	-13.92
676.304	5.08
676.335	-7.92
676.366	8.08
676.397	0.08
676.428	10.08
676.459	4.08
676.489	15.08
676.52	-3.92
676.551	1.08
676.582	1.08
676.613	-0.92
676.643	2.08
676.674	6.08
676.705	12.08
676.736	-4.92
676.767	3.08
676.797	3.08
676.828	10.08
676.859	11.08
676.89	-9.92
676.92	-1.92
676.951	4.08
676.982	21.08
677.013	8.08
677.044	10.08
677.074	-4.92
677.105	-12.92
677.136	5.08
677.167	10.08
677.197	8.08
677.228	7.08
677.259	2.08
677.289	10.08
677.32	-4.92
677.351	3.08
677.382	-3.92
677.412	-1.92
677.443	7.08
677.474	6.08
677.505	-10.92
677.535	-5.92
677.566	7.08
677.597	1.08
677.627	7.08
677.658	1.08
677.689	8.08
677.72	7.08
677.75	5.08
677.781	-8.92
677.812	16.08
677.842	12.08
677.873	27.08
677.904	2.08
677.934	2.08
677.965	1.08
677.996	2.08
678.026	-0.92
678.057	3.08
678.088	-4.92
678.118	-13.92
678.149	-12.92
678.18	-2.92
678.21	8.08
678.241	6.08
678.272	1.08
678.302	0.08
678.333	9.08
678.363	12.08
678.394	1.08
678.425	-0.92
678.455	18.08
678.486	5.08
678.517	-11.92
678.547	2.08
678.578	-2.92
678.608	-17.92
678.639	6.08
678.67	-8.92
678.7	-4.92
678.731	-13.92
678.761	-13.92
678.792	3.08
678.823	7.08
678.853	-0.92
678.884	-26.92
678.914	-21.92
678.945	9.08
678.975	-20.92
679.006	-3.92
679.037	-6.92
679.067	21.08
679.098	10.08
679.128	-7.92
679.159	11.08
679.189	9.08
679.22	0.08
679.25	2.08
679.281	3.08
679.312	6.08
679.342	5.08
679.373	27.08
679.403	4.08
679.434	-0.92
679.464	16.08
679.495	10.08
679.525	-3.92
679.556	6.08
679.586	6.08
679.617	17.08
679.647	7.08
679.678	5.08
679.708	20.08
679.739	-0.92
679.769	4.08
679.8	18.08
679.83	10.08
679.861	12.08
679.891	-11.92
679.922	-17.92
679.952	4.08
679.983	8.08
680.013	9.08
680.044	-12.92
680.074	3.08
680.105	5.08
680.135	-10.92
680.165	10.08
680.196	0.08
680.226	5.08
680.257	6.08
680.287	3.08
680.318	-6.92
680.348	-2.92
680.379	5.08
680.409	-11.92
680.439	-3.92
680.47	-1.92
680.5	7.08
680.531	4.08
680.561	13.08
680.592	7.08
680.622	13.08
680.652	6.08
680.683	17.08
680.713	2.08
680.744	3.08
680.774	-3.92
680.804	18.08
680.835	2.08
680.865	-17.92
680.896	14.08
680.926	18.08
680.956	1.08
680.987	-5.92
681.017	4.08
681.047	7.08
681.078	9.08
681.108	6.08
681.139	-0.92
681.169	10.08
681.199	-3.92
681.23	2.08
681.26	4.08
681.29	-0.92
681.321	-10.92
681.351	7.08
681.381	-19.92
681.412	10.08
681.442	-3.92
681.472	13.08
681.503	17.08
681.533	9.08
681.563	4.08
681.594	8.08
681.624	-6.92
681.654	13.08
681.685	-16.92
681.715	-22.92
681.745	5.08
681.775	-11.92
681.806	-1.92
681.836	17.08
681.866	-8.92
681.897	-4.92
681.927	-2.92
681.957	-28.92
681.987	-15.92
682.018	21.08
682.048	20.08
682.078	18.08
682.109	10.08
682.139	-6.92
682.169	-10.92
682.199	4.08
682.23	-4.92
682.26	13.08
682.29	-7.92
682.32	-10.92
682.351	-10.92
682.381	-14.92
682.411	-9.92
682.441	-4.92
682.472	-2.92
682.502	-6.92
682.532	-10.92
682.562	-8.92
682.592	-0.92
682.623	12.08
682.653	7.08
682.683	10.08
