Data from HighRes_H2_15_09_11_07_2024_HR4C61891__116__15-11-08-001.txt Node

Date: Thu Nov 07 15:11:08 EST 2024
User: crc00042
Spectrometer: HR4C6189
Trigger mode: 4
Integration Time (sec): 1.000000E-1
Scans to average: 1
Electric dark correction enabled: true
Nonlinearity correction enabled: false
Boxcar width: 0
XAxis mode: Wavelengths
Number of Pixels in Spectrum: 3648
>>>>>Begin Spectral Data<<<<<
639.567	-39.23
639.602	-39.23
639.636	-39.23
639.67	-62.23
639.704	-25.23
639.738	-7.23
639.773	0.77
639.807	-13.23
639.841	7.77
639.875	10.77
639.909	-13.23
639.943	-24.23
639.978	-3.23
640.012	3.77
640.046	28.77
640.08	1.77
640.114	7.77
640.148	-0.23
640.182	-14.23
640.217	-18.23
640.251	10.77
640.285	-4.23
640.319	-24.23
640.353	-16.23
640.387	-1.23
640.421	-2.23
640.455	-0.23
640.49	1.77
640.524	-7.23
640.558	6.77
640.592	2.77
640.626	1.77
640.66	-3.23
640.694	-0.23
640.728	1.77
640.762	8.77
640.796	5.77
640.83	9.77
640.865	-5.23
640.899	4.77
640.933	-11.23
640.967	-4.23
641.001	-0.23
641.035	0.77
641.069	-3.23
641.103	-8.23
641.137	-11.23
641.171	-16.23
641.205	4.77
641.239	12.77
641.273	7.77
641.307	-3.23
641.341	-6.23
641.375	-11.23
641.409	1.77
641.443	3.77
641.477	0.77
641.511	3.77
641.545	-1.23
641.579	-19.23
641.614	6.77
641.648	1.77
641.682	2.77
641.716	14.77
641.75	4.77
641.784	-1.23
641.818	-10.23
641.852	-6.23
641.886	8.77
641.919	24.77
641.953	12.77
641.987	-26.23
642.021	-3.23
642.055	14.77
642.089	7.77
642.123	-11.23
642.157	-19.23
642.191	-18.23
642.225	-5.23
642.259	-11.23
642.293	4.77
642.327	0.77
642.361	-5.23
642.395	-5.23
642.429	13.77
642.463	-2.23
642.497	13.77
642.531	4.77
642.565	-4.23
642.599	3.77
642.633	-3.23
642.666	-0.23
642.7	3.77
642.734	5.77
642.768	-8.23
642.802	-13.23
642.836	7.77
642.87	-15.23
642.904	7.77
642.938	5.77
642.972	4.77
643.005	-3.23
643.039	10.77
643.073	2.77
643.107	13.77
643.141	-2.23
643.175	-0.23
643.209	-3.23
643.243	-0.23
643.276	-1.23
643.31	-3.23
643.344	-17.23
643.378	-16.23
643.412	11.77
643.446	8.77
643.48	1.77
643.513	9.77
643.547	-3.23
643.581	-15.23
643.615	1.77
643.649	1.77
643.683	4.77
643.716	-1.23
643.75	-3.23
643.784	-2.23
643.818	11.77
643.852	2.77
643.886	-9.23
643.919	3.77
643.953	-4.23
643.987	-16.23
644.021	1.77
644.055	9.77
644.088	-14.23
644.122	-11.23
644.156	-4.23
644.19	1.77
644.224	1.77
644.257	-6.23
644.291	12.77
644.325	4.77
644.359	-10.23
644.392	16.77
644.426	1.77
644.46	-0.23
644.494	-19.23
644.527	-9.23
644.561	0.77
644.595	1.77
644.629	1.77
644.662	4.77
644.696	2.77
644.73	0.77
644.764	16.77
644.797	-3.23
644.831	2.77
644.865	2.77
644.899	-3.23
644.932	13.77
644.966	-5.23
645	5.77
645.033	9.77
645.067	-4.23
645.101	1.77
645.135	-14.23
645.168	-7.23
645.202	-8.23
645.236	-2.23
645.269	3.77
645.303	6.77
645.337	-8.23
645.37	-18.23
645.404	-0.23
645.438	-5.23
645.471	6.77
645.505	-8.23
645.539	-1.23
645.572	-15.23
645.606	4.77
645.64	-0.23
645.673	12.77
645.707	10.77
645.741	-0.23
645.774	-15.23
645.808	8.77
645.842	-7.23
645.875	-5.23
645.909	1.77
645.943	-3.23
645.976	-9.23
646.01	-0.23
646.043	7.77
646.077	4.77
646.111	18.77
646.144	1.77
646.178	7.77
646.212	1.77
646.245	-6.23
646.279	-2.23
646.312	3.77
646.346	22.77
646.38	-6.23
646.413	3.77
646.447	-5.23
646.48	-8.23
646.514	0.77
646.547	-9.23
646.581	-16.23
646.615	-3.23
646.648	-13.23
646.682	7.77
646.715	0.77
646.749	5.77
646.782	-5.23
646.816	7.77
646.85	-6.23
646.883	-2.23
646.917	10.77
646.95	-12.23
646.984	-1.23
647.017	-5.23
647.051	3.77
647.084	12.77
647.118	-26.23
647.151	0.77
647.185	3.77
647.218	-14.23
647.252	8.77
647.285	-11.23
647.319	-6.23
647.353	3.77
647.386	20.77
647.42	0.77
647.453	-13.23
647.487	7.77
647.52	4.77
647.553	0.77
647.587	-5.23
647.62	-1.23
647.654	18.77
647.687	-2.23
647.721	14.77
647.754	10.77
647.788	-1.23
647.821	-9.23
647.855	-0.23
647.888	3.77
647.922	8.77
647.955	9.77
647.989	7.77
648.022	1.77
648.055	-11.23
648.089	-4.23
648.122	21.77
648.156	-22.23
648.189	-6.23
648.223	5.77
648.256	21.77
648.29	11.77
648.323	-4.23
648.356	-5.23
648.39	1.77
648.423	-3.23
648.457	-15.23
648.49	7.77
648.523	-15.23
648.557	6.77
648.59	-6.23
648.624	-7.23
648.657	-16.23
648.69	-1.23
648.724	-2.23
648.757	6.77
648.791	24.77
648.824	5.77
648.857	24.77
648.891	7.77
648.924	0.77
648.957	4.77
648.991	-6.23
649.024	-1.23
649.057	6.77
649.091	-0.23
649.124	-7.23
649.158	-1.23
649.191	18.77
649.224	21.77
649.258	5.77
649.291	-2.23
649.324	0.77
649.358	-5.23
649.391	-4.23
649.424	-1.23
649.458	19.77
649.491	5.77
649.524	-14.23
649.557	5.77
649.591	-0.23
649.624	14.77
649.657	-11.23
649.691	9.77
649.724	5.77
649.757	5.77
649.791	-15.23
649.824	10.77
649.857	1.77
649.89	-4.23
649.924	-13.23
649.957	-8.23
649.99	-11.23
650.023	-3.23
650.057	-12.23
650.09	-8.23
650.123	6.77
650.157	16.77
650.19	17.77
650.223	-8.23
650.256	-12.23
650.29	-10.23
650.323	-6.23
650.356	12.77
650.389	-7.23
650.423	-9.23
650.456	-15.23
650.489	2.77
650.522	10.77
650.555	9.77
650.589	18.77
650.622	0.77
650.655	16.77
650.688	8.77
650.721	6.77
650.755	16.77
650.788	10.77
650.821	-0.23
650.854	-1.23
650.887	-4.23
650.921	-14.23
650.954	-2.23
650.987	-1.23
651.02	-3.23
651.053	-12.23
651.087	-10.23
651.12	21.77
651.153	-5.23
651.186	-18.23
651.219	-5.23
651.252	3.77
651.286	-2.23
651.319	-9.23
651.352	-0.23
651.385	-7.23
651.418	-2.23
651.451	4.77
651.484	-4.23
651.518	-8.23
651.551	14.77
651.584	4.77
651.617	11.77
651.65	15.77
651.683	4.77
651.716	-9.23
651.749	-10.23
651.783	7.77
651.816	6.77
651.849	5.77
651.882	-5.23
651.915	-5.23
651.948	6.77
651.981	-7.23
652.014	-23.23
652.047	-23.23
652.08	-16.23
652.114	-3.23
652.147	-13.23
652.18	5.77
652.213	25.77
652.246	-10.23
652.279	-19.23
652.312	12.77
652.345	-2.23
652.378	-0.23
652.411	9.77
652.444	13.77
652.477	4.77
652.51	-9.23
652.543	-29.23
652.576	-10.23
652.609	-4.23
652.642	-7.23
652.675	13.77
652.709	-13.23
652.742	9.77
652.775	-0.23
652.808	13.77
652.841	0.77
652.874	-3.23
652.907	-5.23
652.94	-2.23
652.973	-3.23
653.006	-7.23
653.039	-8.23
653.072	11.77
653.105	-0.23
653.138	-11.23
653.171	2.77
653.204	-9.23
653.237	-1.23
653.27	-11.23
653.303	5.77
653.336	-3.23
653.368	6.77
653.401	-1.23
653.434	-5.23
653.467	11.77
653.5	-28.23
653.533	-23.23
653.566	-8.23
653.599	-0.23
653.632	17.77
653.665	12.77
653.698	-13.23
653.731	2.77
653.764	7.77
653.797	-20.23
653.83	-12.23
653.863	-14.23
653.896	11.77
653.929	19.77
653.961	1.77
653.994	1.77
654.027	-4.23
654.06	4.77
654.093	-6.23
654.126	3.77
654.159	-18.23
654.192	-3.23
654.225	1.77
654.258	4.77
654.29	-17.23
654.323	-5.23
654.356	-10.23
654.389	5.77
654.422	4.77
654.455	-2.23
654.488	-0.23
654.521	-17.23
654.553	-8.23
654.586	2.77
654.619	-9.23
654.652	-1.23
654.685	11.77
654.718	3.77
654.751	0.77
654.783	-4.23
654.816	15.77
654.849	3.77
654.882	0.77
654.915	-26.23
654.948	-1.23
654.98	-16.23
655.013	1.77
655.046	4.77
655.079	4.77
655.112	9.77
655.144	-5.23
655.177	3.77
655.21	6.77
655.243	18.77
655.276	15.77
655.308	-18.23
655.341	5.77
655.374	11.77
655.407	-3.23
655.44	-11.23
655.472	2.77
655.505	20.77
655.538	-2.23
655.571	15.77
655.603	7.77
655.636	0.77
655.669	20.77
655.702	21.77
655.734	-9.23
655.767	11.77
655.8	20.77
655.833	26.77
655.865	44.77
655.898	26.77
655.931	42.77
655.964	34.77
655.996	41.77
656.029	72.77
656.062	61.77
656.095	60.77
656.127	62.77
656.16	112.77
656.193	129.77
656.225	176.77
656.258	269.77
656.291	504.77
656.324	1133.77
656.356	3385.77
656.389	7516.77
656.422	6020.77
656.454	2072.77
656.487	684.77
656.52	265.77
656.552	114.77
656.585	74.77
656.618	57.77
656.65	32.77
656.683	29.77
656.716	19.77
656.748	12.77
656.781	-2.23
656.814	11.77
656.846	1.77
656.879	-22.23
656.912	1.77
656.944	-17.23
656.977	-6.23
657.01	9.77
657.042	-9.23
657.075	11.77
657.108	0.77
657.14	0.77
657.173	17.77
657.205	24.77
657.238	4.77
657.271	1.77
657.303	-4.23
657.336	-11.23
657.369	-9.23
657.401	-11.23
657.434	0.77
657.466	0.77
657.499	-5.23
657.532	4.77
657.564	0.77
657.597	-2.23
657.629	12.77
657.662	-2.23
657.694	-9.23
657.727	-16.23
657.76	8.77
657.792	-14.23
657.825	-11.23
657.857	1.77
657.89	-1.23
657.922	-3.23
657.955	1.77
657.987	-4.23
658.02	19.77
658.053	-5.23
658.085	-10.23
658.118	2.77
658.15	3.77
658.183	6.77
658.215	-7.23
658.248	-4.23
658.28	-26.23
658.313	14.77
658.345	13.77
658.378	-4.23
658.41	4.77
658.443	4.77
658.475	2.77
658.508	-8.23
658.54	-17.23
658.573	-3.23
658.605	8.77
658.638	-2.23
658.67	-1.23
658.703	-15.23
658.735	-18.23
658.768	-6.23
658.8	-12.23
658.833	-7.23
658.865	-6.23
658.898	3.77
658.93	-11.23
658.963	-11.23
658.995	-13.23
659.028	0.77
659.06	-6.23
659.092	-19.23
659.125	-21.23
659.157	4.77
659.19	-8.23
659.222	-7.23
659.255	-2.23
659.287	9.77
659.32	5.77
659.352	1.77
659.384	7.77
659.417	-7.23
659.449	13.77
659.482	9.77
659.514	-10.23
659.546	1.77
659.579	-16.23
659.611	-9.23
659.644	-1.23
659.676	-25.23
659.708	-6.23
659.741	-17.23
659.773	-2.23
659.806	-6.23
659.838	-4.23
659.87	-1.23
659.903	-5.23
659.935	-0.23
659.967	-0.23
660	5.77
660.032	-29.23
660.065	6.77
660.097	-11.23
660.129	-6.23
660.162	-15.23
660.194	-10.23
660.226	9.77
660.259	-0.23
660.291	-3.23
660.323	-19.23
660.356	-19.23
660.388	-16.23
660.42	-15.23
660.453	17.77
660.485	20.77
660.517	1.77
660.55	7.77
660.582	-6.23
660.614	-8.23
660.647	-19.23
660.679	-12.23
660.711	3.77
660.743	-13.23
660.776	15.77
660.808	8.77
660.84	-2.23
660.873	3.77
660.905	4.77
660.937	-0.23
660.969	-3.23
661.002	-0.23
661.034	2.77
661.066	8.77
661.099	6.77
661.131	6.77
661.163	-2.23
661.195	-9.23
661.228	-1.23
661.26	-12.23
661.292	-13.23
661.324	2.77
661.357	-8.23
661.389	-3.23
661.421	6.77
661.453	-23.23
661.485	-3.23
661.518	3.77
661.55	-19.23
661.582	-16.23
661.614	-13.23
661.647	-3.23
661.679	-3.23
661.711	18.77
661.743	-7.23
661.775	2.77
661.808	9.77
661.84	-11.23
661.872	0.77
661.904	-11.23
661.936	2.77
661.969	-19.23
662.001	-3.23
662.033	-3.23
662.065	-12.23
662.097	-2.23
662.129	1.77
662.162	-15.23
662.194	-2.23
662.226	-11.23
662.258	5.77
662.29	9.77
662.322	-2.23
662.355	-17.23
662.387	23.77
662.419	2.77
662.451	6.77
662.483	-3.23
662.515	-9.23
662.547	-13.23
662.58	-11.23
662.612	-19.23
662.644	-10.23
662.676	7.77
662.708	12.77
662.74	-3.23
662.772	-2.23
662.804	10.77
662.836	1.77
662.869	-0.23
662.901	-2.23
662.933	-1.23
662.965	0.77
662.997	-2.23
663.029	-16.23
663.061	-4.23
663.093	4.77
663.125	1.77
663.157	5.77
663.189	3.77
663.221	4.77
663.254	-2.23
663.286	10.77
663.318	-22.23
663.35	-23.23
663.382	-9.23
663.414	8.77
663.446	12.77
663.478	-22.23
663.51	10.77
663.542	-7.23
663.574	-9.23
663.606	2.77
663.638	3.77
663.67	-10.23
663.702	-6.23
663.734	-7.23
663.766	-4.23
663.798	-21.23
663.83	-1.23
663.862	-6.23
663.894	8.77
663.926	5.77
663.958	21.77
663.99	2.77
664.022	1.77
664.054	7.77
664.086	-4.23
664.118	-20.23
664.15	-7.23
664.182	0.77
664.214	-14.23
664.246	4.77
664.278	-2.23
664.31	3.77
664.342	4.77
664.374	-10.23
664.406	-8.23
664.438	-11.23
664.47	19.77
664.502	-10.23
664.534	-11.23
664.566	-10.23
664.598	7.77
664.63	-15.23
664.662	9.77
664.693	-0.23
664.725	4.77
664.757	-3.23
664.789	-7.23
664.821	-9.23
664.853	-6.23
664.885	0.77
664.917	-1.23
664.949	12.77
664.981	5.77
665.013	-1.23
665.045	-7.23
665.076	-0.23
665.108	5.77
665.14	6.77
665.172	-18.23
665.204	-0.23
665.236	-0.23
665.268	18.77
665.3	-3.23
665.331	-10.23
665.363	3.77
665.395	-6.23
665.427	-22.23
665.459	1.77
665.491	-5.23
665.523	2.77
665.555	0.77
665.586	7.77
665.618	-0.23
665.65	-13.23
665.682	5.77
665.714	10.77
665.746	0.77
665.777	5.77
665.809	-2.23
665.841	2.77
665.873	4.77
665.905	-3.23
665.937	6.77
665.968	14.77
666	4.77
666.032	-12.23
666.064	3.77
666.096	2.77
666.127	-2.23
666.159	-9.23
666.191	-2.23
666.223	4.77
666.255	8.77
666.286	2.77
666.318	15.77
666.35	31.77
666.382	9.77
666.413	-16.23
666.445	-23.23
666.477	-14.23
666.509	3.77
666.54	7.77
666.572	6.77
666.604	-1.23
666.636	-13.23
666.667	15.77
666.699	11.77
666.731	0.77
666.763	-14.23
666.794	-2.23
666.826	-8.23
666.858	-7.23
666.89	-7.23
666.921	-8.23
666.953	1.77
666.985	0.77
667.017	19.77
667.048	-10.23
667.08	-2.23
667.112	-3.23
667.143	-24.23
667.175	-0.23
667.207	2.77
667.238	-1.23
667.27	-15.23
667.302	-10.23
667.334	-2.23
667.365	13.77
667.397	-0.23
667.429	-2.23
667.46	10.77
667.492	1.77
667.524	-3.23
667.555	-15.23
667.587	-18.23
667.619	-6.23
667.65	-12.23
667.682	-3.23
667.714	0.77
667.745	1.77
667.777	9.77
667.808	7.77
667.84	2.77
667.872	-1.23
667.903	11.77
667.935	-6.23
667.967	-9.23
667.998	5.77
668.03	0.77
668.061	-15.23
668.093	2.77
668.125	4.77
668.156	3.77
668.188	17.77
668.22	-2.23
668.251	7.77
668.283	3.77
668.314	5.77
668.346	-16.23
668.377	-3.23
668.409	-9.23
668.441	-15.23
668.472	-1.23
668.504	5.77
668.535	-1.23
668.567	11.77
668.599	9.77
668.63	2.77
668.662	2.77
668.693	15.77
668.725	-4.23
668.756	8.77
668.788	-3.23
668.819	6.77
668.851	-15.23
668.882	-2.23
668.914	-4.23
668.946	-14.23
668.977	-24.23
669.009	-18.23
669.04	-28.23
669.072	1.77
669.103	0.77
669.135	1.77
669.166	0.77
669.198	-13.23
669.229	-0.23
669.261	-11.23
669.292	-3.23
669.324	6.77
669.355	-6.23
669.387	-18.23
669.418	6.77
669.45	-10.23
669.481	13.77
669.513	8.77
669.544	0.77
669.576	-13.23
669.607	2.77
669.639	14.77
669.67	-9.23
669.701	17.77
669.733	-8.23
669.764	-8.23
669.796	-0.23
669.827	-4.23
669.859	-11.23
669.89	-3.23
669.922	6.77
669.953	-0.23
669.985	-3.23
670.016	16.77
670.047	-0.23
670.079	2.77
670.11	14.77
670.142	-10.23
670.173	-0.23
670.204	-13.23
670.236	14.77
670.267	-11.23
670.299	-3.23
670.33	11.77
670.362	7.77
670.393	0.77
670.424	11.77
670.456	-20.23
670.487	-7.23
670.518	1.77
670.55	-1.23
670.581	4.77
670.613	3.77
670.644	-22.23
670.675	-16.23
670.707	-16.23
670.738	-2.23
670.769	-19.23
670.801	-35.23
670.832	-7.23
670.864	-9.23
670.895	-1.23
670.926	2.77
670.958	-5.23
670.989	-4.23
671.02	-1.23
671.052	-14.23
671.083	-2.23
671.114	-7.23
671.146	-0.23
671.177	0.77
671.208	-2.23
671.24	-21.23
671.271	-2.23
671.302	5.77
671.333	-13.23
671.365	-19.23
671.396	-4.23
671.427	-1.23
671.459	-6.23
671.49	8.77
671.521	4.77
671.553	9.77
671.584	4.77
671.615	-13.23
671.646	4.77
671.678	5.77
671.709	-12.23
671.74	-11.23
671.771	-15.23
671.803	-4.23
671.834	12.77
671.865	-1.23
671.896	17.77
671.928	-10.23
671.959	-8.23
671.99	-16.23
672.021	-9.23
672.053	-7.23
672.084	9.77
672.115	1.77
672.146	-15.23
672.178	-7.23
672.209	-13.23
672.24	-11.23
672.271	11.77
672.303	-9.23
672.334	3.77
672.365	-17.23
672.396	6.77
672.427	-18.23
672.459	4.77
672.49	23.77
672.521	-10.23
672.552	6.77
672.583	0.77
672.615	-2.23
672.646	12.77
672.677	-7.23
672.708	1.77
672.739	3.77
672.77	1.77
672.802	16.77
672.833	4.77
672.864	-6.23
672.895	-7.23
672.926	2.77
672.957	-19.23
672.989	1.77
673.02	3.77
673.051	-8.23
673.082	-6.23
673.113	3.77
673.144	-0.23
673.175	-11.23
673.206	-15.23
673.238	-16.23
673.269	0.77
673.3	-23.23
673.331	-8.23
673.362	-10.23
673.393	-14.23
673.424	1.77
673.455	11.77
673.487	0.77
673.518	1.77
673.549	-8.23
673.58	1.77
673.611	-10.23
673.642	-22.23
673.673	-22.23
673.704	-13.23
673.735	-7.23
673.766	-9.23
673.797	-4.23
673.828	-2.23
673.86	-9.23
673.891	-4.23
673.922	-11.23
673.953	-8.23
673.984	7.77
674.015	13.77
674.046	-1.23
674.077	9.77
674.108	-14.23
674.139	-7.23
674.17	-11.23
674.201	-26.23
674.232	-1.23
674.263	-12.23
674.294	-15.23
674.325	-8.23
674.356	-1.23
674.387	6.77
674.418	-6.23
674.449	-6.23
674.48	-10.23
674.511	14.77
674.542	-7.23
674.573	-9.23
674.604	0.77
674.635	-4.23
674.666	-3.23
674.697	-4.23
674.728	1.77
674.759	10.77
674.79	-9.23
674.821	-22.23
674.852	-22.23
674.883	-9.23
674.914	-9.23
674.945	-14.23
674.976	-7.23
675.007	-17.23
675.038	4.77
675.069	-24.23
675.1	-23.23
675.131	-0.23
675.162	-11.23
675.193	-8.23
675.224	-19.23
675.254	8.77
675.285	-7.23
675.316	-5.23
675.347	-10.23
675.378	-8.23
675.409	-26.23
675.44	3.77
675.471	-6.23
675.502	-2.23
675.533	-6.23
675.564	-8.23
675.595	-5.23
675.625	19.77
675.656	13.77
675.687	-9.23
675.718	-10.23
675.749	4.77
675.78	1.77
675.811	-3.23
675.842	-8.23
675.873	0.77
675.903	-0.23
675.934	-5.23
675.965	7.77
675.996	-10.23
676.027	1.77
676.058	-8.23
676.089	-7.23
676.119	4.77
676.15	0.77
676.181	-7.23
676.212	-12.23
676.243	4.77
676.274	-2.23
676.304	16.77
676.335	-9.23
676.366	-3.23
676.397	-11.23
676.428	1.77
676.459	-7.23
676.489	16.77
676.52	-1.23
676.551	-0.23
676.582	-10.23
676.613	-5.23
676.643	-11.23
676.674	1.77
676.705	-9.23
676.736	7.77
676.767	8.77
676.797	10.77
676.828	11.77
676.859	-7.23
676.89	-3.23
676.92	-0.23
676.951	13.77
676.982	9.77
677.013	-0.23
677.044	9.77
677.074	-4.23
677.105	-2.23
677.136	-11.23
677.167	-0.23
677.197	0.77
677.228	1.77
677.259	-5.23
677.289	-6.23
677.32	-8.23
677.351	-11.23
677.382	-2.23
677.412	-7.23
677.443	-4.23
677.474	0.77
677.505	-8.23
677.535	5.77
677.566	-1.23
677.597	-10.23
677.627	-14.23
677.658	-13.23
677.689	-4.23
677.72	0.77
677.75	-0.23
677.781	-19.23
677.812	5.77
677.842	-0.23
677.873	-12.23
677.904	-19.23
677.934	-5.23
677.965	-14.23
677.996	-17.23
678.026	-2.23
678.057	-10.23
678.088	-3.23
678.118	-11.23
678.149	-4.23
678.18	0.77
678.21	5.77
678.241	-0.23
678.272	3.77
678.302	-9.23
678.333	-1.23
678.363	-6.23
678.394	-7.23
678.425	-9.23
678.455	-5.23
678.486	6.77
678.517	-12.23
678.547	-5.23
678.578	0.77
678.608	-19.23
678.639	16.77
678.67	4.77
678.7	-12.23
678.731	-12.23
678.761	-5.23
678.792	2.77
678.823	1.77
678.853	8.77
678.884	-24.23
678.914	8.77
678.945	-1.23
678.975	-14.23
679.006	7.77
679.037	5.77
679.067	21.77
679.098	11.77
679.128	-14.23
679.159	-2.23
679.189	1.77
679.22	-6.23
679.25	-3.23
679.281	0.77
679.312	-17.23
679.342	-7.23
679.373	13.77
679.403	-11.23
679.434	16.77
679.464	-4.23
679.495	-0.23
679.525	1.77
679.556	-3.23
679.586	17.77
679.617	-0.23
679.647	-10.23
679.678	-6.23
679.708	5.77
679.739	-3.23
679.769	4.77
679.8	0.77
679.83	-0.23
679.861	15.77
679.891	-13.23
679.922	-19.23
679.952	-6.23
679.983	-3.23
680.013	-5.23
680.044	-11.23
680.074	2.77
680.105	10.77
680.135	-13.23
680.165	20.77
680.196	11.77
680.226	9.77
680.257	-11.23
680.287	-3.23
680.318	-7.23
680.348	-2.23
680.379	8.77
680.409	0.77
680.439	-8.23
680.47	8.77
680.5	-6.23
680.531	2.77
680.561	1.77
680.592	3.77
680.622	3.77
680.652	13.77
680.683	-0.23
680.713	-3.23
680.744	-10.23
680.774	-11.23
680.804	30.77
680.835	-6.23
680.865	-10.23
680.896	8.77
680.926	4.77
680.956	5.77
680.987	-9.23
681.017	-13.23
681.047	-3.23
681.078	-19.23
681.108	-7.23
681.139	0.77
681.169	0.77
681.199	-17.23
681.23	1.77
681.26	-12.23
681.29	-5.23
681.321	-5.23
681.351	-1.23
681.381	-22.23
681.412	-6.23
681.442	-8.23
681.472	15.77
681.503	5.77
681.533	1.77
681.563	-14.23
681.594	-10.23
681.624	4.77
681.654	-8.23
681.685	-0.23
681.715	5.77
681.745	-9.23
681.775	-7.23
681.806	-15.23
681.836	-5.23
681.866	2.77
681.897	-0.23
681.927	0.77
681.957	-18.23
681.987	-14.23
682.018	-3.23
682.048	-3.23
682.078	11.77
682.109	9.77
682.139	12.77
682.169	1.77
