Data from HighRes_H2_15_09_11_07_2024_HR4C61891__77__15-11-04-102.txt Node

Date: Thu Nov 07 15:11:04 EST 2024
User: crc00042
Spectrometer: HR4C6189
Trigger mode: 4
Integration Time (sec): 1.000000E-1
Scans to average: 1
Electric dark correction enabled: true
Nonlinearity correction enabled: false
Boxcar width: 0
XAxis mode: Wavelengths
Number of Pixels in Spectrum: 3648
>>>>>Begin Spectral Data<<<<<
639.567	-43.85
639.602	-43.85
639.636	-43.85
639.67	-37.85
639.704	-10.85
639.738	1.15
639.773	3.15
639.807	-10.85
639.841	-11.85
639.875	8.15
639.909	-1.85
639.943	7.15
639.978	2.15
640.012	-11.85
640.046	11.15
640.08	15.15
640.114	7.15
640.148	-18.85
640.182	-11.85
640.217	2.15
640.251	22.15
640.285	15.15
640.319	-6.85
640.353	-5.85
640.387	-7.85
640.421	-11.85
640.455	-8.85
640.49	-8.85
640.524	-11.85
640.558	8.15
640.592	-5.85
640.626	-3.85
640.66	-1.85
640.694	-14.85
640.728	4.15
640.762	7.15
640.796	15.15
640.83	9.15
640.865	-17.85
640.899	-0.85
640.933	0.15
640.967	-4.85
641.001	-2.85
641.035	4.15
641.069	-30.85
641.103	-17.85
641.137	-4.85
641.171	0.15
641.205	8.15
641.239	-11.85
641.273	5.15
641.307	3.15
641.341	-1.85
641.375	-0.85
641.409	-10.85
641.443	-14.85
641.477	-1.85
641.511	5.15
641.545	-2.85
641.579	-0.85
641.614	11.15
641.648	-2.85
641.682	-5.85
641.716	5.15
641.75	17.15
641.784	13.15
641.818	-6.85
641.852	4.15
641.886	-8.85
641.919	1.15
641.953	-0.85
641.987	-12.85
642.021	7.15
642.055	3.15
642.089	5.15
642.123	-2.85
642.157	3.15
642.191	-3.85
642.225	11.15
642.259	-3.85
642.293	19.15
642.327	-3.85
642.361	-6.85
642.395	28.15
642.429	10.15
642.463	0.15
642.497	-9.85
642.531	-7.85
642.565	-11.85
642.599	3.15
642.633	-7.85
642.666	4.15
642.7	15.15
642.734	7.15
642.768	10.15
642.802	-3.85
642.836	13.15
642.87	11.15
642.904	3.15
642.938	14.15
642.972	4.15
643.005	-4.85
643.039	21.15
643.073	7.15
643.107	5.15
643.141	5.15
643.175	10.15
643.209	-5.85
643.243	2.15
643.276	4.15
643.31	-6.85
643.344	0.15
643.378	5.15
643.412	14.15
643.446	-5.85
643.48	-16.85
643.513	13.15
643.547	-3.85
643.581	-3.85
643.615	-2.85
643.649	1.15
643.683	-8.85
643.716	-6.85
643.75	-14.85
643.784	-3.85
643.818	13.15
643.852	-1.85
643.886	-7.85
643.919	16.15
643.953	-6.85
643.987	1.15
644.021	14.15
644.055	9.15
644.088	-0.85
644.122	-6.85
644.156	-4.85
644.19	6.15
644.224	10.15
644.257	6.15
644.291	6.15
644.325	1.15
644.359	20.15
644.392	30.15
644.426	7.15
644.46	-5.85
644.494	15.15
644.527	-11.85
644.561	-4.85
644.595	-4.85
644.629	-4.85
644.662	-6.85
644.696	5.15
644.73	-0.85
644.764	-9.85
644.797	-17.85
644.831	7.15
644.865	5.15
644.899	-19.85
644.932	11.15
644.966	5.15
645	1.15
645.033	8.15
645.067	-13.85
645.101	2.15
645.135	-3.85
645.168	4.15
645.202	-8.85
645.236	-6.85
645.269	1.15
645.303	-5.85
645.337	-9.85
645.37	-13.85
645.404	-0.85
645.438	6.15
645.471	-8.85
645.505	9.15
645.539	-6.85
645.572	-14.85
645.606	-5.85
645.64	12.15
645.673	-1.85
645.707	22.15
645.741	1.15
645.774	-4.85
645.808	3.15
645.842	-14.85
645.875	9.15
645.909	-3.85
645.943	-8.85
645.976	12.15
646.01	13.15
646.043	5.15
646.077	16.15
646.111	-6.85
646.144	6.15
646.178	10.15
646.212	-16.85
646.245	1.15
646.279	0.15
646.312	2.15
646.346	17.15
646.38	-15.85
646.413	-4.85
646.447	5.15
646.48	-2.85
646.514	21.15
646.547	-0.85
646.581	-6.85
646.615	-5.85
646.648	-6.85
646.682	-6.85
646.715	-1.85
646.749	3.15
646.782	-7.85
646.816	0.15
646.85	-0.85
646.883	-0.85
646.917	3.15
646.95	8.15
646.984	2.15
647.017	-12.85
647.051	3.15
647.084	8.15
647.118	-1.85
647.151	-6.85
647.185	2.15
647.218	-22.85
647.252	-8.85
647.285	-4.85
647.319	-0.85
647.353	0.15
647.386	14.15
647.42	1.15
647.453	11.15
647.487	-3.85
647.52	-14.85
647.553	-9.85
647.587	-3.85
647.62	-2.85
647.654	6.15
647.687	5.15
647.721	0.15
647.754	-6.85
647.788	-2.85
647.821	-12.85
647.855	13.15
647.888	10.15
647.922	14.15
647.955	4.15
647.989	-5.85
648.022	-5.85
648.055	8.15
648.089	-12.85
648.122	23.15
648.156	-2.85
648.189	-3.85
648.223	-6.85
648.256	25.15
648.29	6.15
648.323	-2.85
648.356	13.15
648.39	-4.85
648.423	3.15
648.457	-6.85
648.49	18.15
648.523	25.15
648.557	5.15
648.59	-5.85
648.624	8.15
648.657	-1.85
648.69	3.15
648.724	4.15
648.757	13.15
648.791	5.15
648.824	1.15
648.857	15.15
648.891	-6.85
648.924	0.15
648.957	-4.85
648.991	13.15
649.024	-6.85
649.057	-1.85
649.091	8.15
649.124	9.15
649.158	-4.85
649.191	26.15
649.224	12.15
649.258	1.15
649.291	11.15
649.324	-1.85
649.358	-10.85
649.391	-8.85
649.424	4.15
649.458	-10.85
649.491	-5.85
649.524	-26.85
649.557	-14.85
649.591	-13.85
649.624	13.15
649.657	-8.85
649.691	9.15
649.724	0.15
649.757	9.15
649.791	-11.85
649.824	13.15
649.857	-5.85
649.89	-9.85
649.924	-2.85
649.957	-6.85
649.99	-17.85
650.023	6.15
650.057	-0.85
650.09	-11.85
650.123	-0.85
650.157	14.15
650.19	25.15
650.223	-2.85
650.256	-11.85
650.29	-5.85
650.323	7.15
650.356	-0.85
650.389	-1.85
650.423	-5.85
650.456	0.15
650.489	-4.85
650.522	1.15
650.555	8.15
650.589	1.15
650.622	-6.85
650.655	6.15
650.688	7.15
650.721	-13.85
650.755	11.15
650.788	-2.85
650.821	-10.85
650.854	2.15
650.887	5.15
650.921	2.15
650.954	-10.85
650.987	-7.85
651.02	-15.85
651.053	-3.85
651.087	-6.85
651.12	9.15
651.153	-1.85
651.186	-14.85
651.219	-9.85
651.252	15.15
651.286	10.15
651.319	-3.85
651.352	-0.85
651.385	-7.85
651.418	2.15
651.451	30.15
651.484	5.15
651.518	-11.85
651.551	18.15
651.584	-1.85
651.617	9.15
651.65	3.15
651.683	-4.85
651.716	2.15
651.749	0.15
651.783	3.15
651.816	6.15
651.849	-0.85
651.882	-6.85
651.915	1.15
651.948	-1.85
651.981	-4.85
652.014	-10.85
652.047	-9.85
652.08	-16.85
652.114	-6.85
652.147	-3.85
652.18	6.15
652.213	8.15
652.246	-3.85
652.279	-8.85
652.312	1.15
652.345	-1.85
652.378	-5.85
652.411	17.15
652.444	-0.85
652.477	-3.85
652.51	0.15
652.543	0.15
652.576	3.15
652.609	-4.85
652.642	-8.85
652.675	-5.85
652.709	0.15
652.742	-10.85
652.775	-3.85
652.808	-5.85
652.841	-14.85
652.874	7.15
652.907	-13.85
652.94	-5.85
652.973	-0.85
653.006	-7.85
653.039	-3.85
653.072	-2.85
653.105	-5.85
653.138	-15.85
653.171	-12.85
653.204	-0.85
653.237	25.15
653.27	-10.85
653.303	6.15
653.336	19.15
653.368	-2.85
653.401	1.15
653.434	-0.85
653.467	-21.85
653.5	-16.85
653.533	-10.85
653.566	-11.85
653.599	-6.85
653.632	10.15
653.665	7.15
653.698	-8.85
653.731	-24.85
653.764	-10.85
653.797	3.15
653.83	4.15
653.863	-18.85
653.896	6.15
653.929	-6.85
653.961	13.15
653.994	1.15
654.027	-6.85
654.06	-0.85
654.093	2.15
654.126	-8.85
654.159	-30.85
654.192	-11.85
654.225	0.15
654.258	-8.85
654.29	-2.85
654.323	-3.85
654.356	9.15
654.389	5.15
654.422	-16.85
654.455	-5.85
654.488	-5.85
654.521	-14.85
654.553	-20.85
654.586	9.15
654.619	14.15
654.652	-10.85
654.685	-4.85
654.718	9.15
654.751	-6.85
654.783	-0.85
654.816	7.15
654.849	-0.85
654.882	-4.85
654.915	-9.85
654.948	9.15
654.98	-4.85
655.013	-0.85
655.046	-5.85
655.079	-17.85
655.112	0.15
655.144	-18.85
655.177	3.15
655.21	1.15
655.243	17.15
655.276	7.15
655.308	-6.85
655.341	8.15
655.374	9.15
655.407	-4.85
655.44	-0.85
655.472	11.15
655.505	10.15
655.538	0.15
655.571	28.15
655.603	9.15
655.636	14.15
655.669	12.15
655.702	16.15
655.734	-5.85
655.767	20.15
655.8	25.15
655.833	35.15
655.865	13.15
655.898	25.15
655.931	47.15
655.964	35.15
655.996	51.15
656.029	65.15
656.062	49.15
656.095	79.15
656.127	63.15
656.16	115.15
656.193	134.15
656.225	180.15
656.258	288.15
656.291	529.15
656.324	1162.15
656.356	3490.15
656.389	7831.15
656.422	6248.15
656.454	2146.15
656.487	696.15
656.52	261.15
656.552	131.15
656.585	91.15
656.618	72.15
656.65	46.15
656.683	20.15
656.716	20.15
656.748	8.15
656.781	12.15
656.814	-9.85
656.846	9.15
656.879	-0.85
656.912	4.15
656.944	-15.85
656.977	-0.85
657.01	-7.85
657.042	-9.85
657.075	7.15
657.108	-3.85
657.14	3.15
657.173	21.15
657.205	9.15
657.238	-0.85
657.271	4.15
657.303	-3.85
657.336	2.15
657.369	-7.85
657.401	8.15
657.434	1.15
657.466	1.15
657.499	24.15
657.532	9.15
657.564	2.15
657.597	11.15
657.629	15.15
657.662	-9.85
657.694	-4.85
657.727	-22.85
657.76	2.15
657.792	4.15
657.825	-11.85
657.857	-23.85
657.89	-5.85
657.922	3.15
657.955	-11.85
657.987	0.15
658.02	8.15
658.053	10.15
658.085	3.15
658.118	-4.85
658.15	5.15
658.183	10.15
658.215	-7.85
658.248	-12.85
658.28	-18.85
658.313	20.15
658.345	8.15
658.378	9.15
658.41	-5.85
658.443	11.15
658.475	-2.85
658.508	-6.85
658.54	9.15
658.573	2.15
658.605	2.15
658.638	-5.85
658.67	-13.85
658.703	-3.85
658.735	-21.85
658.768	13.15
658.8	7.15
658.833	9.15
658.865	-0.85
658.898	1.15
658.93	-12.85
658.963	-2.85
658.995	-11.85
659.028	9.15
659.06	6.15
659.092	-1.85
659.125	-4.85
659.157	-2.85
659.19	-9.85
659.222	-10.85
659.255	-16.85
659.287	-5.85
659.32	-10.85
659.352	5.15
659.384	5.15
659.417	-6.85
659.449	-9.85
659.482	9.15
659.514	-9.85
659.546	11.15
659.579	-8.85
659.611	6.15
659.644	0.15
659.676	-6.85
659.708	-2.85
659.741	-11.85
659.773	24.15
659.806	10.15
659.838	-0.85
659.87	-12.85
659.903	-0.85
659.935	-1.85
659.967	1.15
660	8.15
660.032	-26.85
660.065	3.15
660.097	-8.85
660.129	0.15
660.162	-13.85
660.194	9.15
660.226	-1.85
660.259	2.15
660.291	-2.85
660.323	-18.85
660.356	-1.85
660.388	-17.85
660.42	-14.85
660.453	12.15
660.485	-4.85
660.517	3.15
660.55	7.15
660.582	7.15
660.614	10.15
660.647	-2.85
660.679	-10.85
660.711	11.15
660.743	-12.85
660.776	-3.85
660.808	-2.85
660.84	-11.85
660.873	6.15
660.905	6.15
660.937	20.15
660.969	8.15
661.002	2.15
661.034	20.15
661.066	9.15
661.099	3.15
661.131	3.15
661.163	-5.85
661.195	-0.85
661.228	-3.85
661.26	-5.85
661.292	-12.85
661.324	3.15
661.357	6.15
661.389	-4.85
661.421	-2.85
661.453	-9.85
661.485	19.15
661.518	-0.85
661.55	-21.85
661.582	-23.85
661.614	-15.85
661.647	1.15
661.679	-4.85
661.711	1.15
661.743	-5.85
661.775	1.15
661.808	11.15
661.84	-5.85
661.872	-4.85
661.904	-12.85
661.936	-5.85
661.969	-6.85
662.001	-5.85
662.033	3.15
662.065	-8.85
662.097	3.15
662.129	3.15
662.162	-13.85
662.194	10.15
662.226	10.15
662.258	6.15
662.29	-1.85
662.322	-9.85
662.355	-16.85
662.387	14.15
662.419	6.15
662.451	9.15
662.483	7.15
662.515	1.15
662.547	-4.85
662.58	-12.85
662.612	2.15
662.644	-13.85
662.676	8.15
662.708	-6.85
662.74	-0.85
662.772	9.15
662.804	11.15
662.836	-3.85
662.869	-14.85
662.901	17.15
662.933	6.15
662.965	-5.85
662.997	-6.85
663.029	-15.85
663.061	-3.85
663.093	6.15
663.125	9.15
663.157	2.15
663.189	0.15
663.221	3.15
663.254	1.15
663.286	1.15
663.318	12.15
663.35	4.15
663.382	8.15
663.414	-9.85
663.446	0.15
663.478	-6.85
663.51	21.15
663.542	-9.85
663.574	-1.85
663.606	-2.85
663.638	-18.85
663.67	-9.85
663.702	-6.85
663.734	-3.85
663.766	14.15
663.798	-6.85
663.83	0.15
663.862	3.15
663.894	-1.85
663.926	-8.85
663.958	11.15
663.99	7.15
664.022	-11.85
664.054	7.15
664.086	-11.85
664.118	-11.85
664.15	-6.85
664.182	-11.85
664.214	-10.85
664.246	6.15
664.278	16.15
664.31	13.15
664.342	13.15
664.374	-5.85
664.406	-10.85
664.438	-5.85
664.47	12.15
664.502	-7.85
664.534	-7.85
664.566	0.15
664.598	7.15
664.63	-19.85
664.662	-2.85
664.693	-4.85
664.725	4.15
664.757	6.15
664.789	-15.85
664.821	9.15
664.853	10.15
664.885	8.15
664.917	-6.85
664.949	3.15
664.981	12.15
665.013	-0.85
665.045	-4.85
665.076	-19.85
665.108	-1.85
665.14	-11.85
665.172	7.15
665.204	-2.85
665.236	-0.85
665.268	29.15
665.3	-3.85
665.331	-9.85
665.363	2.15
665.395	-8.85
665.427	2.15
665.459	7.15
665.491	-11.85
665.523	-1.85
665.555	-2.85
665.586	-10.85
665.618	0.15
665.65	-21.85
665.682	5.15
665.714	-1.85
665.746	-3.85
665.777	-1.85
665.809	-10.85
665.841	-5.85
665.873	-14.85
665.905	-1.85
665.937	5.15
665.968	3.15
666	-0.85
666.032	1.15
666.064	-0.85
666.096	3.15
666.127	2.15
666.159	13.15
666.191	17.15
666.223	3.15
666.255	17.15
666.286	-5.85
666.318	-19.85
666.35	17.15
666.382	-0.85
666.413	-9.85
666.445	-31.85
666.477	-9.85
666.509	-5.85
666.54	6.15
666.572	3.15
666.604	-6.85
666.636	-1.85
666.667	10.15
666.699	-15.85
666.731	1.15
666.763	-16.85
666.794	-7.85
666.826	2.15
666.858	-20.85
666.89	7.15
666.921	5.15
666.953	3.15
666.985	5.15
667.017	12.15
667.048	-15.85
667.08	0.15
667.112	1.15
667.143	-18.85
667.175	-3.85
667.207	-10.85
667.238	2.15
667.27	5.15
667.302	-5.85
667.334	5.15
667.365	17.15
667.397	-1.85
667.429	-5.85
667.46	14.15
667.492	8.15
667.524	-1.85
667.555	-10.85
667.587	-10.85
667.619	-24.85
667.65	-25.85
667.682	-20.85
667.714	-3.85
667.745	-16.85
667.777	-1.85
667.808	9.15
667.84	8.15
667.872	2.15
667.903	0.15
667.935	-7.85
667.967	-6.85
667.998	-0.85
668.03	-6.85
668.061	6.15
668.093	6.15
668.125	2.15
668.156	9.15
668.188	4.15
668.22	-10.85
668.251	0.15
668.283	-1.85
668.314	8.15
668.346	-1.85
668.377	1.15
668.409	-12.85
668.441	6.15
668.472	0.15
668.504	14.15
668.535	16.15
668.567	11.15
668.599	-9.85
668.63	-12.85
668.662	-1.85
668.693	18.15
668.725	-2.85
668.756	2.15
668.788	-5.85
668.819	-5.85
668.851	2.15
668.882	-0.85
668.914	-0.85
668.946	-15.85
668.977	-14.85
669.009	9.15
669.04	-0.85
669.072	-1.85
669.103	-14.85
669.135	-1.85
669.166	1.15
669.198	10.15
669.229	-14.85
669.261	-5.85
669.292	-10.85
669.324	-9.85
669.355	2.15
669.387	-13.85
669.418	-6.85
669.45	-15.85
669.481	-11.85
669.513	0.15
669.544	-7.85
669.576	2.15
669.607	13.15
669.639	21.15
669.67	2.15
669.701	8.15
669.733	-15.85
669.764	-12.85
669.796	-11.85
669.827	-11.85
669.859	-2.85
669.89	3.15
669.922	6.15
669.953	6.15
669.985	-0.85
670.016	3.15
670.047	-14.85
670.079	-2.85
670.11	11.15
670.142	-17.85
670.173	-7.85
670.204	-18.85
670.236	2.15
670.267	-12.85
670.299	-0.85
670.33	6.15
670.362	5.15
670.393	-1.85
670.424	-8.85
670.456	-3.85
670.487	-16.85
670.518	-7.85
670.55	3.15
670.581	-5.85
670.613	7.15
670.644	-3.85
670.675	2.15
670.707	-5.85
670.738	-7.85
670.769	-8.85
670.801	-5.85
670.832	8.15
670.864	-7.85
670.895	-14.85
670.926	-3.85
670.958	-11.85
670.989	3.15
671.02	-4.85
671.052	-12.85
671.083	-1.85
671.114	-10.85
671.146	3.15
671.177	-10.85
671.208	-5.85
671.24	-1.85
671.271	-4.85
671.302	-2.85
671.333	-15.85
671.365	-13.85
671.396	-0.85
671.427	-8.85
671.459	-9.85
671.49	11.15
671.521	1.15
671.553	-1.85
671.584	5.15
671.615	-23.85
671.646	10.15
671.678	3.15
671.709	-17.85
671.74	-19.85
671.771	1.15
671.803	-1.85
671.834	0.15
671.865	-3.85
671.896	-7.85
671.928	-5.85
671.959	-32.85
671.99	-18.85
672.021	-1.85
672.053	-13.85
672.084	0.15
672.115	-0.85
672.146	-15.85
672.178	-16.85
672.209	-16.85
672.24	-10.85
672.271	33.15
672.303	8.15
672.334	-3.85
672.365	-4.85
672.396	15.15
672.427	1.15
672.459	7.15
672.49	15.15
672.521	6.15
672.552	5.15
672.583	6.15
672.615	1.15
672.646	0.15
672.677	-3.85
672.708	-10.85
672.739	-14.85
672.77	-4.85
672.802	14.15
672.833	-7.85
672.864	-9.85
672.895	-15.85
672.926	-6.85
672.957	-4.85
672.989	-8.85
673.02	-8.85
673.051	-7.85
673.082	5.15
673.113	-18.85
673.144	1.15
673.175	-1.85
673.206	-17.85
673.238	-13.85
673.269	1.15
673.3	-10.85
673.331	2.15
673.362	0.15
673.393	-6.85
673.424	14.15
673.455	16.15
673.487	-5.85
673.518	2.15
673.549	-10.85
673.58	5.15
673.611	0.15
673.642	-14.85
673.673	-10.85
673.704	9.15
673.735	-4.85
673.766	-3.85
673.797	-8.85
673.828	3.15
673.86	-10.85
673.891	-0.85
673.922	-5.85
673.953	-3.85
673.984	-0.85
674.015	0.15
674.046	1.15
674.077	4.15
674.108	-5.85
674.139	-17.85
674.17	0.15
674.201	8.15
674.232	0.15
674.263	0.15
674.294	1.15
674.325	-6.85
674.356	11.15
674.387	18.15
674.418	9.15
674.449	3.15
674.48	-17.85
674.511	5.15
674.542	7.15
674.573	-10.85
674.604	5.15
674.635	8.15
674.666	1.15
674.697	-9.85
674.728	-18.85
674.759	-5.85
674.79	-29.85
674.821	-14.85
674.852	3.15
674.883	-17.85
674.914	-5.85
674.945	-10.85
674.976	8.15
675.007	2.15
675.038	-0.85
675.069	-5.85
675.1	-13.85
675.131	-2.85
675.162	-10.85
675.193	-0.85
675.224	-2.85
675.254	7.15
675.285	6.15
675.316	5.15
675.347	-14.85
675.378	-16.85
675.409	0.15
675.44	6.15
675.471	13.15
675.502	-5.85
675.533	-14.85
675.564	4.15
675.595	2.15
675.625	31.15
675.656	1.15
675.687	-4.85
675.718	-15.85
675.749	3.15
675.78	8.15
675.811	-6.85
675.842	-5.85
675.873	-10.85
675.903	-15.85
675.934	-4.85
675.965	-5.85
675.996	-11.85
676.027	5.15
676.058	0.15
676.089	-22.85
676.119	-6.85
676.15	-17.85
676.181	-7.85
676.212	-6.85
676.243	16.15
676.274	1.15
676.304	-3.85
676.335	-16.85
676.366	9.15
676.397	1.15
676.428	7.15
676.459	1.15
676.489	4.15
676.52	-6.85
676.551	6.15
676.582	-4.85
676.613	-2.85
676.643	5.15
676.674	9.15
676.705	1.15
676.736	3.15
676.767	4.15
676.797	-10.85
676.828	5.15
676.859	0.15
676.89	-5.85
676.92	7.15
676.951	2.15
676.982	9.15
677.013	0.15
677.044	-1.85
677.074	2.15
677.105	-14.85
677.136	4.15
677.167	0.15
677.197	6.15
677.228	6.15
677.259	-18.85
677.289	-2.85
677.32	-7.85
677.351	-2.85
677.382	-6.85
677.412	-7.85
677.443	11.15
677.474	17.15
677.505	-18.85
677.535	-5.85
677.566	-6.85
677.597	-15.85
677.627	-7.85
677.658	4.15
677.689	4.15
677.72	-2.85
677.75	-4.85
677.781	-17.85
677.812	-3.85
677.842	1.15
677.873	3.15
677.904	8.15
677.934	2.15
677.965	2.15
677.996	-3.85
678.026	5.15
678.057	14.15
678.088	-13.85
678.118	-7.85
678.149	-26.85
678.18	4.15
678.21	-2.85
678.241	-1.85
678.272	-6.85
678.302	-7.85
678.333	5.15
678.363	0.15
678.394	-4.85
678.425	-5.85
678.455	-4.85
678.486	3.15
678.517	-8.85
678.547	6.15
678.578	-5.85
678.608	-9.85
678.639	2.15
678.67	-17.85
678.7	-6.85
678.731	-13.85
678.761	11.15
678.792	9.15
678.823	-0.85
678.853	-6.85
678.884	-12.85
678.914	-1.85
678.945	1.15
678.975	2.15
679.006	8.15
679.037	-0.85
679.067	23.15
679.098	-9.85
679.128	-12.85
679.159	-6.85
679.189	14.15
679.22	-14.85
679.25	1.15
679.281	-3.85
679.312	-3.85
679.342	4.15
679.373	25.15
679.403	5.15
679.434	-17.85
679.464	-12.85
679.495	0.15
679.525	-1.85
679.556	7.15
679.586	8.15
679.617	17.15
679.647	8.15
679.678	-7.85
679.708	-7.85
679.739	10.15
679.769	0.15
679.8	6.15
679.83	2.15
679.861	-4.85
679.891	-1.85
679.922	-15.85
679.952	-12.85
679.983	6.15
680.013	2.15
680.044	2.15
680.074	5.15
680.105	12.15
680.135	5.15
680.165	10.15
680.196	6.15
680.226	-7.85
680.257	4.15
680.287	2.15
680.318	0.15
680.348	-10.85
680.379	-6.85
680.409	8.15
680.439	16.15
680.47	2.15
680.5	-10.85
680.531	-0.85
680.561	13.15
680.592	-6.85
680.622	9.15
680.652	-5.85
680.683	22.15
680.713	-10.85
680.744	-21.85
680.774	-16.85
680.804	13.15
680.835	-11.85
680.865	-27.85
680.896	5.15
680.926	5.15
680.956	1.15
680.987	2.15
681.017	-7.85
681.047	8.15
681.078	-19.85
681.108	-6.85
681.139	-2.85
681.169	-9.85
681.199	-15.85
681.23	5.15
681.26	-0.85
681.29	9.15
681.321	-9.85
681.351	-7.85
681.381	-3.85
681.412	-1.85
681.442	-8.85
681.472	12.15
681.503	9.15
681.533	-2.85
681.563	-3.85
681.594	-13.85
681.624	10.15
681.654	-4.85
681.685	4.15
681.715	7.15
681.745	15.15
681.775	5.15
681.806	2.15
681.836	-14.85
681.866	-11.85
681.897	-8.85
681.927	-8.85
681.957	-9.85
681.987	0.15
682.018	-5.85
682.048	-6.85
682.078	0.15
682.109	24.15
682.139	10.15
682.169	0.15
682.199	-9.85
682.23	-12.85
682.26	-5.85
682.29	-6.85
682.32	-11.85
