Data from HighRes_H2_15_09_11_07_2024_HR4C61891__91__15-11-05-502.txt Node

Date: Thu Nov 07 15:11:05 EST 2024
User: crc00042
Spectrometer: HR4C6189
Trigger mode: 4
Integration Time (sec): 1.000000E-1
Scans to average: 1
Electric dark correction enabled: true
Nonlinearity correction enabled: false
Boxcar width: 0
XAxis mode: Wavelengths
Number of Pixels in Spectrum: 3648
>>>>>Begin Spectral Data<<<<<
639.567	-47.69
639.602	-47.69
639.636	-47.69
639.67	-45.69
639.704	-17.69
639.738	-6.69
639.773	3.31
639.807	-8.69
639.841	1.31
639.875	-3.69
639.909	-0.69
639.943	0.31
639.978	2.31
640.012	2.31
640.046	11.31
640.08	2.31
640.114	5.31
640.148	-8.69
640.182	-2.69
640.217	-0.69
640.251	18.31
640.285	21.31
640.319	-5.69
640.353	-0.69
640.387	7.31
640.421	-13.69
640.455	-15.69
640.49	-9.69
640.524	2.31
640.558	10.31
640.592	7.31
640.626	7.31
640.66	5.31
640.694	7.31
640.728	-1.69
640.762	16.31
640.796	25.31
640.83	7.31
640.865	-9.69
640.899	20.31
640.933	-2.69
640.967	-0.69
641.001	14.31
641.035	8.31
641.069	-7.69
641.103	-13.69
641.137	-7.69
641.171	-4.69
641.205	10.31
641.239	13.31
641.273	23.31
641.307	13.31
641.341	-9.69
641.375	-5.69
641.409	3.31
641.443	-3.69
641.477	3.31
641.511	7.31
641.545	-1.69
641.579	-0.69
641.614	8.31
641.648	1.31
641.682	-8.69
641.716	0.31
641.75	19.31
641.784	6.31
641.818	8.31
641.852	1.31
641.886	0.31
641.919	21.31
641.953	7.31
641.987	-8.69
642.021	-4.69
642.055	9.31
642.089	15.31
642.123	1.31
642.157	-14.69
642.191	-16.69
642.225	2.31
642.259	-6.69
642.293	4.31
642.327	-7.69
642.361	4.31
642.395	14.31
642.429	14.31
642.463	0.31
642.497	17.31
642.531	5.31
642.565	-1.69
642.599	11.31
642.633	3.31
642.666	28.31
642.7	7.31
642.734	5.31
642.768	-22.69
642.802	11.31
642.836	9.31
642.87	5.31
642.904	41.31
642.938	13.31
642.972	-10.69
643.005	5.31
643.039	18.31
643.073	-1.69
643.107	9.31
643.141	1.31
643.175	2.31
643.209	2.31
643.243	3.31
643.276	9.31
643.31	5.31
643.344	9.31
643.378	5.31
643.412	8.31
643.446	2.31
643.48	3.31
643.513	12.31
643.547	2.31
643.581	-5.69
643.615	-2.69
643.649	1.31
643.683	10.31
643.716	5.31
643.75	-1.69
643.784	-21.69
643.818	0.31
643.852	-1.69
643.886	4.31
643.919	1.31
643.953	4.31
643.987	3.31
644.021	29.31
644.055	17.31
644.088	-3.69
644.122	-14.69
644.156	-14.69
644.19	2.31
644.224	3.31
644.257	-4.69
644.291	6.31
644.325	-6.69
644.359	3.31
644.392	20.31
644.426	17.31
644.46	6.31
644.494	5.31
644.527	5.31
644.561	23.31
644.595	4.31
644.629	5.31
644.662	-6.69
644.696	9.31
644.73	2.31
644.764	11.31
644.797	2.31
644.831	-3.69
644.865	6.31
644.899	4.31
644.932	26.31
644.966	-4.69
645	29.31
645.033	16.31
645.067	-4.69
645.101	-2.69
645.135	10.31
645.168	-6.69
645.202	-6.69
645.236	3.31
645.269	5.31
645.303	-8.69
645.337	-10.69
645.37	-2.69
645.404	3.31
645.438	11.31
645.471	6.31
645.505	-1.69
645.539	0.31
645.572	-23.69
645.606	-10.69
645.64	1.31
645.673	10.31
645.707	22.31
645.741	-0.69
645.774	-3.69
645.808	17.31
645.842	-12.69
645.875	22.31
645.909	-0.69
645.943	4.31
645.976	9.31
646.01	4.31
646.043	14.31
646.077	24.31
646.111	1.31
646.144	14.31
646.178	18.31
646.212	1.31
646.245	9.31
646.279	19.31
646.312	31.31
646.346	8.31
646.38	4.31
646.413	9.31
646.447	6.31
646.48	6.31
646.514	12.31
646.547	3.31
646.581	-6.69
646.615	16.31
646.648	3.31
646.682	12.31
646.715	-3.69
646.749	6.31
646.782	6.31
646.816	5.31
646.85	7.31
646.883	-5.69
646.917	7.31
646.95	4.31
646.984	13.31
647.017	-0.69
647.051	14.31
647.084	10.31
647.118	-5.69
647.151	11.31
647.185	20.31
647.218	0.31
647.252	18.31
647.285	3.31
647.319	-17.69
647.353	-0.69
647.386	30.31
647.42	11.31
647.453	13.31
647.487	15.31
647.52	2.31
647.553	24.31
647.587	19.31
647.62	-3.69
647.654	-6.69
647.687	-5.69
647.721	5.31
647.754	12.31
647.788	5.31
647.821	-3.69
647.855	-11.69
647.888	3.31
647.922	7.31
647.955	1.31
647.989	5.31
648.022	-8.69
648.055	-0.69
648.089	-15.69
648.122	22.31
648.156	-1.69
648.189	-2.69
648.223	15.31
648.256	33.31
648.29	3.31
648.323	2.31
648.356	16.31
648.39	9.31
648.423	9.31
648.457	6.31
648.49	9.31
648.523	7.31
648.557	-1.69
648.59	-12.69
648.624	-0.69
648.657	14.31
648.69	16.31
648.724	-2.69
648.757	12.31
648.791	7.31
648.824	7.31
648.857	24.31
648.891	3.31
648.924	6.31
648.957	12.31
648.991	-5.69
649.024	1.31
649.057	-2.69
649.091	-17.69
649.124	-0.69
649.158	22.31
649.191	31.31
649.224	6.31
649.258	2.31
649.291	17.31
649.324	20.31
649.358	9.31
649.391	7.31
649.424	1.31
649.458	-18.69
649.491	-7.69
649.524	-1.69
649.557	-16.69
649.591	-2.69
649.624	9.31
649.657	-12.69
649.691	-3.69
649.724	9.31
649.757	14.31
649.791	2.31
649.824	20.31
649.857	15.31
649.89	1.31
649.924	1.31
649.957	-8.69
649.99	-14.69
650.023	-4.69
650.057	-1.69
650.09	18.31
650.123	9.31
650.157	23.31
650.19	9.31
650.223	-6.69
650.256	8.31
650.29	2.31
650.323	5.31
650.356	0.31
650.389	-4.69
650.423	-20.69
650.456	2.31
650.489	-2.69
650.522	8.31
650.555	33.31
650.589	14.31
650.622	9.31
650.655	16.31
650.688	7.31
650.721	8.31
650.755	9.31
650.788	6.31
650.821	-2.69
650.854	-14.69
650.887	15.31
650.921	6.31
650.954	2.31
650.987	22.31
651.02	8.31
651.053	-2.69
651.087	-7.69
651.12	7.31
651.153	8.31
651.186	-5.69
651.219	-8.69
651.252	20.31
651.286	6.31
651.319	-6.69
651.352	12.31
651.385	24.31
651.418	9.31
651.451	17.31
651.484	6.31
651.518	-3.69
651.551	14.31
651.584	11.31
651.617	7.31
651.65	-3.69
651.683	9.31
651.716	0.31
651.749	15.31
651.783	3.31
651.816	0.31
651.849	18.31
651.882	14.31
651.915	2.31
651.948	6.31
651.981	-2.69
652.014	-10.69
652.047	-5.69
652.08	-13.69
652.114	4.31
652.147	-10.69
652.18	-18.69
652.213	23.31
652.246	7.31
652.279	5.31
652.312	6.31
652.345	-0.69
652.378	0.31
652.411	17.31
652.444	13.31
652.477	3.31
652.51	0.31
652.543	-1.69
652.576	-0.69
652.609	-2.69
652.642	15.31
652.675	13.31
652.709	4.31
652.742	20.31
652.775	4.31
652.808	0.31
652.841	6.31
652.874	11.31
652.907	4.31
652.94	4.31
652.973	2.31
653.006	12.31
653.039	-4.69
653.072	2.31
653.105	2.31
653.138	-17.69
653.171	1.31
653.204	-8.69
653.237	11.31
653.27	-3.69
653.303	30.31
653.336	25.31
653.368	2.31
653.401	11.31
653.434	-3.69
653.467	10.31
653.5	7.31
653.533	-5.69
653.566	-2.69
653.599	8.31
653.632	12.31
653.665	12.31
653.698	-2.69
653.731	-7.69
653.764	14.31
653.797	1.31
653.83	17.31
653.863	-3.69
653.896	4.31
653.929	-1.69
653.961	10.31
653.994	9.31
654.027	-6.69
654.06	6.31
654.093	12.31
654.126	-1.69
654.159	-5.69
654.192	6.31
654.225	-15.69
654.258	6.31
654.29	-1.69
654.323	-0.69
654.356	-6.69
654.389	8.31
654.422	7.31
654.455	7.31
654.488	4.31
654.521	-16.69
654.553	-18.69
654.586	24.31
654.619	6.31
654.652	15.31
654.685	4.31
654.718	12.31
654.751	12.31
654.783	-0.69
654.816	17.31
654.849	-5.69
654.882	7.31
654.915	5.31
654.948	8.31
654.98	-19.69
655.013	-19.69
655.046	7.31
655.079	-1.69
655.112	18.31
655.144	-14.69
655.177	12.31
655.21	11.31
655.243	23.31
655.276	20.31
655.308	7.31
655.341	9.31
655.374	16.31
655.407	1.31
655.44	4.31
655.472	26.31
655.505	20.31
655.538	11.31
655.571	11.31
655.603	12.31
655.636	25.31
655.669	28.31
655.702	24.31
655.734	2.31
655.767	3.31
655.8	22.31
655.833	32.31
655.865	30.31
655.898	37.31
655.931	51.31
655.964	52.31
655.996	58.31
656.029	68.31
656.062	65.31
656.095	68.31
656.127	76.31
656.16	104.31
656.193	130.31
656.225	170.31
656.258	269.31
656.291	508.31
656.324	1124.31
656.356	3400.31
656.389	7520.31
656.422	6054.31
656.454	2048.31
656.487	684.31
656.52	265.31
656.552	122.31
656.585	79.31
656.618	56.31
656.65	44.31
656.683	22.31
656.716	25.31
656.748	13.31
656.781	7.31
656.814	0.31
656.846	-3.69
656.879	9.31
656.912	5.31
656.944	-22.69
656.977	-2.69
657.01	-7.69
657.042	8.31
657.075	35.31
657.108	6.31
657.14	3.31
657.173	9.31
657.205	36.31
657.238	15.31
657.271	-0.69
657.303	2.31
657.336	12.31
657.369	-2.69
657.401	-5.69
657.434	6.31
657.466	5.31
657.499	1.31
657.532	8.31
657.564	4.31
657.597	14.31
657.629	1.31
657.662	-0.69
657.694	13.31
657.727	-17.69
657.76	25.31
657.792	-8.69
657.825	-5.69
657.857	-9.69
657.89	5.31
657.922	14.31
657.955	-7.69
657.987	3.31
658.02	32.31
658.053	18.31
658.085	-11.69
658.118	11.31
658.15	7.31
658.183	28.31
658.215	1.31
658.248	-8.69
658.28	-14.69
658.313	15.31
658.345	22.31
658.378	4.31
658.41	-8.69
658.443	17.31
658.475	11.31
658.508	3.31
658.54	7.31
658.573	2.31
658.605	2.31
658.638	5.31
658.67	-11.69
658.703	0.31
658.735	-10.69
658.768	10.31
658.8	-3.69
658.833	15.31
658.865	-4.69
658.898	-6.69
658.93	-17.69
658.963	-3.69
658.995	-14.69
659.028	3.31
659.06	-6.69
659.092	-3.69
659.125	-9.69
659.157	15.31
659.19	-5.69
659.222	-20.69
659.255	-14.69
659.287	-11.69
659.32	3.31
659.352	-1.69
659.384	18.31
659.417	-12.69
659.449	0.31
659.482	18.31
659.514	12.31
659.546	-3.69
659.579	-6.69
659.611	12.31
659.644	3.31
659.676	-9.69
659.708	4.31
659.741	-1.69
659.773	22.31
659.806	18.31
659.838	-2.69
659.87	11.31
659.903	-1.69
659.935	12.31
659.967	3.31
660	10.31
660.032	-27.69
660.065	-1.69
660.097	5.31
660.129	7.31
660.162	-14.69
660.194	17.31
660.226	12.31
660.259	20.31
660.291	1.31
660.323	8.31
660.356	-0.69
660.388	-5.69
660.42	2.31
660.453	15.31
660.485	9.31
660.517	5.31
660.55	6.31
660.582	3.31
660.614	9.31
660.647	19.31
660.679	5.31
660.711	9.31
660.743	-1.69
660.776	10.31
660.808	1.31
660.84	4.31
660.873	-0.69
660.905	-8.69
660.937	-0.69
660.969	5.31
661.002	10.31
661.034	9.31
661.066	-3.69
661.099	5.31
661.131	9.31
661.163	-7.69
661.195	-0.69
661.228	18.31
661.26	-0.69
661.292	2.31
661.324	10.31
661.357	6.31
661.389	8.31
661.421	1.31
661.453	-4.69
661.485	5.31
661.518	12.31
661.55	-1.69
661.582	-21.69
661.614	8.31
661.647	12.31
661.679	9.31
661.711	-0.69
661.743	-1.69
661.775	4.31
661.808	20.31
661.84	-2.69
661.872	2.31
661.904	-5.69
661.936	2.31
661.969	-13.69
662.001	-1.69
662.033	17.31
662.065	-10.69
662.097	19.31
662.129	4.31
662.162	3.31
662.194	5.31
662.226	3.31
662.258	13.31
662.29	5.31
662.322	-12.69
662.355	5.31
662.387	21.31
662.419	23.31
662.451	11.31
662.483	6.31
662.515	5.31
662.547	-11.69
662.58	-22.69
662.612	-9.69
662.644	-17.69
662.676	5.31
662.708	12.31
662.74	-6.69
662.772	-5.69
662.804	4.31
662.836	11.31
662.869	12.31
662.901	7.31
662.933	6.31
662.965	6.31
662.997	6.31
663.029	-0.69
663.061	-9.69
663.093	-6.69
663.125	12.31
663.157	0.31
663.189	4.31
663.221	1.31
663.254	3.31
663.286	2.31
663.318	8.31
663.35	-15.69
663.382	13.31
663.414	13.31
663.446	24.31
663.478	-8.69
663.51	21.31
663.542	-5.69
663.574	9.31
663.606	13.31
663.638	3.31
663.67	2.31
663.702	8.31
663.734	5.31
663.766	-1.69
663.798	8.31
663.83	16.31
663.862	14.31
663.894	8.31
663.926	-4.69
663.958	11.31
663.99	0.31
664.022	-14.69
664.054	5.31
664.086	4.31
664.118	-7.69
664.15	-3.69
664.182	7.31
664.214	-8.69
664.246	17.31
664.278	-2.69
664.31	4.31
664.342	13.31
664.374	7.31
664.406	-4.69
664.438	-15.69
664.47	-0.69
664.502	-1.69
664.534	8.31
664.566	-1.69
664.598	8.31
664.63	8.31
664.662	5.31
664.693	-12.69
664.725	-1.69
664.757	-0.69
664.789	1.31
664.821	17.31
664.853	9.31
664.885	8.31
664.917	3.31
664.949	3.31
664.981	-8.69
665.013	2.31
665.045	-27.69
665.076	-0.69
665.108	-0.69
665.14	5.31
665.172	-19.69
665.204	-24.69
665.236	1.31
665.268	9.31
665.3	-7.69
665.331	-3.69
665.363	2.31
665.395	-16.69
665.427	-2.69
665.459	7.31
665.491	15.31
665.523	-3.69
665.555	4.31
665.586	0.31
665.618	-14.69
665.65	-12.69
665.682	2.31
665.714	8.31
665.746	6.31
665.777	11.31
665.809	5.31
665.841	25.31
665.873	6.31
665.905	5.31
665.937	10.31
665.968	1.31
666	7.31
666.032	7.31
666.064	5.31
666.096	-6.69
666.127	6.31
666.159	14.31
666.191	17.31
666.223	1.31
666.255	10.31
666.286	10.31
666.318	10.31
666.35	11.31
666.382	8.31
666.413	-20.69
666.445	-32.69
666.477	-32.69
666.509	-19.69
666.54	-7.69
666.572	-3.69
666.604	8.31
666.636	-3.69
666.667	19.31
666.699	6.31
666.731	10.31
666.763	-9.69
666.794	15.31
666.826	10.31
666.858	-11.69
666.89	13.31
666.921	-0.69
666.953	15.31
666.985	6.31
667.017	28.31
667.048	3.31
667.08	3.31
667.112	-3.69
667.143	-4.69
667.175	8.31
667.207	-8.69
667.238	4.31
667.27	11.31
667.302	-0.69
667.334	4.31
667.365	17.31
667.397	1.31
667.429	-17.69
667.46	0.31
667.492	-11.69
667.524	-3.69
667.555	3.31
667.587	5.31
667.619	11.31
667.65	13.31
667.682	16.31
667.714	-4.69
667.745	9.31
667.777	-11.69
667.808	6.31
667.84	18.31
667.872	10.31
667.903	23.31
667.935	1.31
667.967	3.31
667.998	-14.69
668.03	3.31
668.061	4.31
668.093	1.31
668.125	7.31
668.156	5.31
668.188	-1.69
668.22	-5.69
668.251	12.31
668.283	1.31
668.314	14.31
668.346	6.31
668.377	-6.69
668.409	-9.69
668.441	-9.69
668.472	-3.69
668.504	14.31
668.535	10.31
668.567	17.31
668.599	0.31
668.63	7.31
668.662	2.31
668.693	7.31
668.725	11.31
668.756	2.31
668.788	15.31
668.819	4.31
668.851	7.31
668.882	12.31
668.914	-4.69
668.946	-1.69
668.977	-14.69
669.009	6.31
669.04	-7.69
669.072	-10.69
669.103	-1.69
669.135	2.31
669.166	6.31
669.198	1.31
669.229	8.31
669.261	-6.69
669.292	10.31
669.324	11.31
669.355	-0.69
669.387	-0.69
669.418	10.31
669.45	13.31
669.481	15.31
669.513	11.31
669.544	9.31
669.576	-19.69
669.607	5.31
669.639	13.31
669.67	14.31
669.701	-4.69
669.733	-5.69
669.764	-2.69
669.796	6.31
669.827	-14.69
669.859	2.31
669.89	25.31
669.922	10.31
669.953	11.31
669.985	13.31
670.016	9.31
670.047	13.31
670.079	3.31
670.11	8.31
670.142	2.31
670.173	-7.69
670.204	0.31
670.236	-3.69
670.267	-9.69
670.299	5.31
670.33	-9.69
670.362	11.31
670.393	1.31
670.424	11.31
670.456	-6.69
670.487	-6.69
670.518	-16.69
670.55	5.31
670.581	3.31
670.613	-3.69
670.644	-7.69
670.675	-9.69
670.707	-7.69
670.738	0.31
670.769	-1.69
670.801	-22.69
670.832	9.31
670.864	-11.69
670.895	-4.69
670.926	-4.69
670.958	-3.69
670.989	0.31
671.02	2.31
671.052	4.31
671.083	15.31
671.114	9.31
671.146	14.31
671.177	20.31
671.208	-3.69
671.24	-12.69
671.271	-5.69
671.302	0.31
671.333	0.31
671.365	-10.69
671.396	-5.69
671.427	6.31
671.459	16.31
671.49	1.31
671.521	12.31
671.553	8.31
671.584	13.31
671.615	-4.69
671.646	-2.69
671.678	1.31
671.709	-14.69
671.74	4.31
671.771	5.31
671.803	-12.69
671.834	2.31
671.865	4.31
671.896	15.31
671.928	-0.69
671.959	1.31
671.99	3.31
672.021	-2.69
672.053	-12.69
672.084	19.31
672.115	6.31
672.146	-2.69
672.178	-5.69
672.209	-10.69
672.24	2.31
672.271	5.31
672.303	9.31
672.334	-12.69
672.365	-21.69
672.396	-2.69
672.427	-4.69
672.459	9.31
672.49	14.31
672.521	0.31
672.552	6.31
672.583	13.31
672.615	0.31
672.646	-0.69
672.677	6.31
672.708	-2.69
672.739	17.31
672.77	15.31
672.802	-8.69
672.833	-10.69
672.864	4.31
672.895	-1.69
672.926	-5.69
672.957	-14.69
672.989	-6.69
673.02	9.31
673.051	-5.69
673.082	15.31
673.113	13.31
673.144	17.31
673.175	9.31
673.206	11.31
673.238	-2.69
673.269	10.31
673.3	1.31
673.331	4.31
673.362	-6.69
673.393	-7.69
673.424	13.31
673.455	14.31
673.487	6.31
673.518	22.31
673.549	14.31
673.58	-6.69
673.611	7.31
673.642	-5.69
673.673	-41.69
673.704	-5.69
673.735	6.31
673.766	-5.69
673.797	-2.69
673.828	10.31
673.86	-9.69
673.891	-23.69
673.922	-7.69
673.953	-7.69
673.984	12.31
674.015	23.31
674.046	-8.69
674.077	0.31
674.108	-24.69
674.139	-9.69
674.17	2.31
674.201	-12.69
674.232	0.31
674.263	10.31
674.294	1.31
674.325	-1.69
674.356	-12.69
674.387	2.31
674.418	17.31
674.449	-7.69
674.48	-0.69
674.511	-0.69
674.542	3.31
674.573	1.31
674.604	8.31
674.635	0.31
674.666	3.31
674.697	5.31
674.728	-4.69
674.759	-1.69
674.79	-9.69
674.821	-14.69
674.852	1.31
674.883	-2.69
674.914	-2.69
674.945	-0.69
674.976	4.31
675.007	-0.69
675.038	-14.69
675.069	-4.69
675.1	-8.69
675.131	-5.69
675.162	-12.69
675.193	-9.69
675.224	-13.69
675.254	12.31
675.285	11.31
675.316	4.31
675.347	8.31
675.378	-4.69
675.409	-19.69
675.44	-0.69
675.471	3.31
675.502	-4.69
675.533	1.31
675.564	6.31
675.595	8.31
675.625	27.31
675.656	7.31
675.687	0.31
675.718	-11.69
675.749	-1.69
675.78	-5.69
675.811	6.31
675.842	6.31
675.873	-4.69
675.903	-7.69
675.934	15.31
675.965	-3.69
675.996	-5.69
676.027	-3.69
676.058	-0.69
676.089	-8.69
676.119	-4.69
676.15	-4.69
676.181	-6.69
676.212	-8.69
676.243	2.31
676.274	1.31
676.304	18.31
676.335	-13.69
676.366	6.31
676.397	4.31
676.428	-5.69
676.459	1.31
676.489	-6.69
676.52	-4.69
676.551	3.31
676.582	-0.69
676.613	8.31
676.643	11.31
676.674	4.31
676.705	4.31
676.736	4.31
676.767	2.31
676.797	4.31
676.828	18.31
676.859	-4.69
676.89	-1.69
676.92	1.31
676.951	2.31
676.982	-3.69
677.013	-19.69
677.044	21.31
677.074	16.31
677.105	-6.69
677.136	7.31
677.167	1.31
677.197	16.31
677.228	15.31
677.259	-9.69
677.289	1.31
677.32	-17.69
677.351	-7.69
677.382	-7.69
677.412	-2.69
677.443	2.31
677.474	-5.69
677.505	0.31
677.535	5.31
677.566	-14.69
677.597	-8.69
677.627	-13.69
677.658	-7.69
677.689	1.31
677.72	8.31
677.75	-11.69
677.781	1.31
677.812	4.31
677.842	20.31
677.873	9.31
677.904	-1.69
677.934	21.31
677.965	-6.69
677.996	-6.69
678.026	9.31
678.057	14.31
678.088	-4.69
678.118	4.31
678.149	-15.69
678.18	-6.69
678.21	-9.69
678.241	-8.69
678.272	-5.69
678.302	16.31
678.333	14.31
678.363	-3.69
678.394	-7.69
678.425	-0.69
678.455	4.31
678.486	12.31
678.517	-6.69
678.547	-3.69
678.578	5.31
678.608	-2.69
678.639	-4.69
678.67	-3.69
678.7	-3.69
678.731	-11.69
678.761	0.31
678.792	9.31
678.823	12.31
678.853	0.31
678.884	-9.69
678.914	1.31
678.945	5.31
678.975	-12.69
679.006	-4.69
679.037	-14.69
679.067	26.31
679.098	-3.69
679.128	-4.69
679.159	4.31
679.189	0.31
679.22	-23.69
679.25	1.31
679.281	1.31
679.312	-4.69
679.342	-5.69
679.373	25.31
679.403	13.31
679.434	10.31
679.464	13.31
679.495	7.31
679.525	-8.69
679.556	1.31
679.586	18.31
679.617	9.31
679.647	10.31
679.678	-9.69
679.708	5.31
679.739	-4.69
679.769	5.31
679.8	-4.69
679.83	-9.69
679.861	5.31
679.891	-3.69
679.922	-13.69
679.952	-0.69
679.983	5.31
680.013	-3.69
680.044	2.31
680.074	8.31
680.105	15.31
680.135	-10.69
680.165	8.31
680.196	4.31
680.226	7.31
680.257	6.31
680.287	-14.69
680.318	-18.69
680.348	-9.69
680.379	13.31
680.409	7.31
680.439	-1.69
680.47	0.31
680.5	0.31
680.531	-5.69
680.561	3.31
680.592	5.31
680.622	18.31
680.652	3.31
680.683	12.31
680.713	-0.69
680.744	0.31
680.774	-15.69
680.804	8.31
680.835	4.31
680.865	-1.69
680.896	18.31
680.926	4.31
680.956	6.31
680.987	7.31
681.017	-18.69
681.047	-0.69
681.078	-12.69
681.108	2.31
681.139	17.31
681.169	0.31
681.199	-6.69
681.23	-3.69
681.26	11.31
681.29	5.31
681.321	-12.69
681.351	2.31
681.381	0.31
681.412	-2.69
681.442	5.31
681.472	26.31
681.503	14.31
681.533	5.31
681.563	-0.69
681.594	3.31
681.624	-2.69
681.654	8.31
681.685	3.31
681.715	10.31
681.745	-3.69
681.775	-28.69
681.806	-1.69
681.836	-12.69
681.866	-7.69
681.897	12.31
681.927	16.31
681.957	-20.69
681.987	4.31
682.018	2.31
682.048	14.31
682.078	3.31
682.109	22.31
682.139	12.31
682.169	12.31
682.199	5.31
682.23	-13.69
682.26	6.31
682.29	0.31
682.32	2.31
682.351	12.31
682.381	-10.69
682.411	-1.69
682.441	-1.69
682.472	-10.69
682.502	-7.69
682.532	-7.69
682.562	7.31
682.592	2.31
682.623	8.31
682.653	-4.69
682.683	0.31
682.713	2.31
