Data from HighRes_H2_15_09_11_07_2024_HR4C61891__111__15-11-07-501.txt Node

Date: Thu Nov 07 15:11:07 EST 2024
User: crc00042
Spectrometer: HR4C6189
Trigger mode: 4
Integration Time (sec): 1.000000E-1
Scans to average: 1
Electric dark correction enabled: true
Nonlinearity correction enabled: false
Boxcar width: 0
XAxis mode: Wavelengths
Number of Pixels in Spectrum: 3648
>>>>>Begin Spectral Data<<<<<
639.567	-39.15
639.602	-39.15
639.636	-39.15
639.67	-48.15
639.704	-8.15
639.738	5.85
639.773	6.85
639.807	-11.15
639.841	-4.15
639.875	12.85
639.909	-1.15
639.943	-6.15
639.978	-4.15
640.012	-19.15
640.046	8.85
640.08	6.85
640.114	7.85
640.148	-3.15
640.182	-18.15
640.217	2.85
640.251	28.85
640.285	11.85
640.319	-14.15
640.353	8.85
640.387	8.85
640.421	7.85
640.455	7.85
640.49	4.85
640.524	-6.15
640.558	13.85
640.592	5.85
640.626	18.85
640.66	16.85
640.694	0.85
640.728	17.85
640.762	17.85
640.796	16.85
640.83	33.85
640.865	-8.15
640.899	6.85
640.933	-9.15
640.967	-6.15
641.001	7.85
641.035	7.85
641.069	10.85
641.103	-3.15
641.137	4.85
641.171	-15.15
641.205	10.85
641.239	2.85
641.273	14.85
641.307	9.85
641.341	6.85
641.375	8.85
641.409	-14.15
641.443	9.85
641.477	21.85
641.511	12.85
641.545	16.85
641.579	14.85
641.614	8.85
641.648	9.85
641.682	-7.15
641.716	9.85
641.75	15.85
641.784	3.85
641.818	4.85
641.852	13.85
641.886	4.85
641.919	24.85
641.953	8.85
641.987	-2.15
642.021	12.85
642.055	11.85
642.089	13.85
642.123	2.85
642.157	7.85
642.191	-8.15
642.225	5.85
642.259	3.85
642.293	30.85
642.327	23.85
642.361	3.85
642.395	21.85
642.429	27.85
642.463	16.85
642.497	26.85
642.531	12.85
642.565	-14.15
642.599	16.85
642.633	1.85
642.666	5.85
642.7	15.85
642.734	19.85
642.768	-10.15
642.802	-6.15
642.836	5.85
642.87	-7.15
642.904	7.85
642.938	10.85
642.972	5.85
643.005	3.85
643.039	27.85
643.073	1.85
643.107	4.85
643.141	8.85
643.175	5.85
643.209	7.85
643.243	9.85
643.276	-9.15
643.31	2.85
643.344	-2.15
643.378	11.85
643.412	0.85
643.446	-2.15
643.48	6.85
643.513	3.85
643.547	-4.15
643.581	-20.15
643.615	10.85
643.649	10.85
643.683	3.85
643.716	1.85
643.75	6.85
643.784	-1.15
643.818	8.85
643.852	4.85
643.886	8.85
643.919	4.85
643.953	4.85
643.987	1.85
644.021	5.85
644.055	0.85
644.088	-3.15
644.122	5.85
644.156	-3.15
644.19	-4.15
644.224	22.85
644.257	12.85
644.291	26.85
644.325	18.85
644.359	-0.15
644.392	32.85
644.426	15.85
644.46	-9.15
644.494	2.85
644.527	-6.15
644.561	16.85
644.595	10.85
644.629	1.85
644.662	0.85
644.696	26.85
644.73	11.85
644.764	14.85
644.797	12.85
644.831	-2.15
644.865	13.85
644.899	22.85
644.932	17.85
644.966	-0.15
645	-1.15
645.033	12.85
645.067	3.85
645.101	4.85
645.135	10.85
645.168	6.85
645.202	0.85
645.236	4.85
645.269	8.85
645.303	-0.15
645.337	-4.15
645.37	-2.15
645.404	-2.15
645.438	14.85
645.471	3.85
645.505	8.85
645.539	12.85
645.572	-7.15
645.606	5.85
645.64	12.85
645.673	18.85
645.707	29.85
645.741	1.85
645.774	-6.15
645.808	18.85
645.842	7.85
645.875	20.85
645.909	3.85
645.943	-2.15
645.976	10.85
646.01	21.85
646.043	15.85
646.077	24.85
646.111	7.85
646.144	17.85
646.178	17.85
646.212	-9.15
646.245	-0.15
646.279	9.85
646.312	18.85
646.346	23.85
646.38	15.85
646.413	13.85
646.447	9.85
646.48	5.85
646.514	10.85
646.547	11.85
646.581	11.85
646.615	7.85
646.648	-1.15
646.682	8.85
646.715	3.85
646.749	-0.15
646.782	-2.15
646.816	-7.15
646.85	11.85
646.883	-0.15
646.917	7.85
646.95	14.85
646.984	4.85
647.017	-2.15
647.051	23.85
647.084	6.85
647.118	-0.15
647.151	0.85
647.185	19.85
647.218	7.85
647.252	22.85
647.285	4.85
647.319	8.85
647.353	24.85
647.386	34.85
647.42	13.85
647.453	-6.15
647.487	12.85
647.52	19.85
647.553	13.85
647.587	-2.15
647.62	-3.15
647.654	5.85
647.687	9.85
647.721	11.85
647.754	18.85
647.788	-7.15
647.821	-2.15
647.855	8.85
647.888	20.85
647.922	14.85
647.955	-2.15
647.989	16.85
648.022	4.85
648.055	19.85
648.089	10.85
648.122	39.85
648.156	19.85
648.189	0.85
648.223	3.85
648.256	14.85
648.29	-0.15
648.323	-1.15
648.356	25.85
648.39	23.85
648.423	10.85
648.457	-1.15
648.49	17.85
648.523	12.85
648.557	0.85
648.59	4.85
648.624	16.85
648.657	-9.15
648.69	20.85
648.724	12.85
648.757	14.85
648.791	4.85
648.824	10.85
648.857	31.85
648.891	8.85
648.924	20.85
648.957	17.85
648.991	-3.15
649.024	7.85
649.057	0.85
649.091	-12.15
649.124	6.85
649.158	8.85
649.191	37.85
649.224	13.85
649.258	10.85
649.291	13.85
649.324	11.85
649.358	6.85
649.391	14.85
649.424	13.85
649.458	13.85
649.491	6.85
649.524	-9.15
649.557	-3.15
649.591	-24.15
649.624	12.85
649.657	-10.15
649.691	-5.15
649.724	2.85
649.757	4.85
649.791	6.85
649.824	25.85
649.857	18.85
649.89	13.85
649.924	-19.15
649.957	5.85
649.99	4.85
650.023	-4.15
650.057	-0.15
650.09	22.85
650.123	0.85
650.157	22.85
650.19	9.85
650.223	3.85
650.256	4.85
650.29	12.85
650.323	5.85
650.356	19.85
650.389	1.85
650.423	-10.15
650.456	6.85
650.489	13.85
650.522	9.85
650.555	26.85
650.589	21.85
650.622	15.85
650.655	2.85
650.688	6.85
650.721	8.85
650.755	11.85
650.788	1.85
650.821	-2.15
650.854	13.85
650.887	15.85
650.921	5.85
650.954	-12.15
650.987	-5.15
651.02	5.85
651.053	1.85
651.087	-2.15
651.12	16.85
651.153	12.85
651.186	16.85
651.219	-9.15
651.252	18.85
651.286	22.85
651.319	9.85
651.352	-1.15
651.385	15.85
651.418	7.85
651.451	8.85
651.484	24.85
651.518	-0.15
651.551	33.85
651.584	2.85
651.617	9.85
651.65	16.85
651.683	24.85
651.716	-5.15
651.749	-21.15
651.783	11.85
651.816	12.85
651.849	13.85
651.882	8.85
651.915	4.85
651.948	19.85
651.981	1.85
652.014	-9.15
652.047	-5.15
652.08	0.85
652.114	-0.15
652.147	-5.15
652.18	8.85
652.213	24.85
652.246	10.85
652.279	-6.15
652.312	26.85
652.345	11.85
652.378	18.85
652.411	18.85
652.444	13.85
652.477	5.85
652.51	10.85
652.543	-1.15
652.576	7.85
652.609	5.85
652.642	16.85
652.675	12.85
652.709	8.85
652.742	12.85
652.775	16.85
652.808	15.85
652.841	15.85
652.874	22.85
652.907	10.85
652.94	1.85
652.973	-3.15
653.006	-4.15
653.039	6.85
653.072	26.85
653.105	21.85
653.138	2.85
653.171	3.85
653.204	1.85
653.237	2.85
653.27	-5.15
653.303	10.85
653.336	19.85
653.368	3.85
653.401	-2.15
653.434	11.85
653.467	10.85
653.5	-1.15
653.533	-7.15
653.566	18.85
653.599	7.85
653.632	1.85
653.665	4.85
653.698	-2.15
653.731	-5.15
653.764	9.85
653.797	7.85
653.83	7.85
653.863	8.85
653.896	-1.15
653.929	2.85
653.961	4.85
653.994	-2.15
654.027	1.85
654.06	13.85
654.093	-1.15
654.126	4.85
654.159	0.85
654.192	1.85
654.225	-4.15
654.258	2.85
654.29	8.85
654.323	4.85
654.356	4.85
654.389	8.85
654.422	16.85
654.455	4.85
654.488	-5.15
654.521	-18.15
654.553	-11.15
654.586	8.85
654.619	6.85
654.652	9.85
654.685	13.85
654.718	20.85
654.751	7.85
654.783	-21.15
654.816	13.85
654.849	17.85
654.882	-2.15
654.915	7.85
654.948	-1.15
654.98	-0.15
655.013	-8.15
655.046	8.85
655.079	7.85
655.112	21.85
655.144	11.85
655.177	28.85
655.21	5.85
655.243	15.85
655.276	2.85
655.308	0.85
655.341	-2.15
655.374	2.85
655.407	-1.15
655.44	15.85
655.472	8.85
655.505	18.85
655.538	11.85
655.571	13.85
655.603	11.85
655.636	7.85
655.669	31.85
655.702	18.85
655.734	23.85
655.767	26.85
655.8	29.85
655.833	16.85
655.865	27.85
655.898	25.85
655.931	41.85
655.964	41.85
655.996	44.85
656.029	70.85
656.062	63.85
656.095	69.85
656.127	42.85
656.16	109.85
656.193	144.85
656.225	194.85
656.258	267.85
656.291	501.85
656.324	1154.85
656.356	3341.85
656.389	7554.85
656.422	6054.85
656.454	2082.85
656.487	695.85
656.52	260.85
656.552	119.85
656.585	63.85
656.618	54.85
656.65	43.85
656.683	32.85
656.716	33.85
656.748	11.85
656.781	1.85
656.814	3.85
656.846	2.85
656.879	-4.15
656.912	9.85
656.944	-10.15
656.977	-1.15
657.01	18.85
657.042	20.85
657.075	19.85
657.108	-0.15
657.14	18.85
657.173	19.85
657.205	43.85
657.238	9.85
657.271	12.85
657.303	-4.15
657.336	11.85
657.369	16.85
657.401	-10.15
657.434	16.85
657.466	16.85
657.499	3.85
657.532	3.85
657.564	19.85
657.597	1.85
657.629	10.85
657.662	13.85
657.694	8.85
657.727	12.85
657.76	16.85
657.792	-7.15
657.825	-0.15
657.857	13.85
657.89	8.85
657.922	8.85
657.955	3.85
657.987	-4.15
658.02	13.85
658.053	21.85
658.085	18.85
658.118	5.85
658.15	14.85
658.183	19.85
658.215	-2.15
658.248	-9.15
658.28	5.85
658.313	16.85
658.345	23.85
658.378	6.85
658.41	-1.15
658.443	22.85
658.475	11.85
658.508	8.85
658.54	15.85
658.573	-12.15
658.605	8.85
658.638	-4.15
658.67	14.85
658.703	0.85
658.735	-9.15
658.768	8.85
658.8	-16.15
658.833	28.85
658.865	4.85
658.898	1.85
658.93	3.85
658.963	0.85
658.995	-7.15
659.028	5.85
659.06	7.85
659.092	-1.15
659.125	-3.15
659.157	17.85
659.19	-3.15
659.222	1.85
659.255	4.85
659.287	-4.15
659.32	12.85
659.352	5.85
659.384	8.85
659.417	2.85
659.449	4.85
659.482	-0.15
659.514	-3.15
659.546	-14.15
659.579	-13.15
659.611	12.85
659.644	17.85
659.676	5.85
659.708	-11.15
659.741	-18.15
659.773	4.85
659.806	12.85
659.838	6.85
659.87	-2.15
659.903	-13.15
659.935	9.85
659.967	2.85
660	-0.15
660.032	-23.15
660.065	19.85
660.097	13.85
660.129	4.85
660.162	-18.15
660.194	-0.15
660.226	-3.15
660.259	7.85
660.291	-3.15
660.323	-7.15
660.356	1.85
660.388	8.85
660.42	14.85
660.453	21.85
660.485	13.85
660.517	15.85
660.55	8.85
660.582	-3.15
660.614	21.85
660.647	8.85
660.679	-20.15
660.711	-4.15
660.743	-7.15
660.776	-0.15
660.808	1.85
660.84	2.85
660.873	16.85
660.905	-0.15
660.937	-3.15
660.969	2.85
661.002	9.85
661.034	6.85
661.066	-3.15
661.099	14.85
661.131	4.85
661.163	4.85
661.195	1.85
661.228	20.85
661.26	9.85
661.292	16.85
661.324	10.85
661.357	19.85
661.389	17.85
661.421	35.85
661.453	11.85
661.485	9.85
661.518	14.85
661.55	-7.15
661.582	-14.15
661.614	6.85
661.647	8.85
661.679	15.85
661.711	19.85
661.743	-2.15
661.775	2.85
661.808	12.85
661.84	4.85
661.872	7.85
661.904	1.85
661.936	10.85
661.969	-2.15
662.001	1.85
662.033	16.85
662.065	0.85
662.097	9.85
662.129	11.85
662.162	4.85
662.194	20.85
662.226	-1.15
662.258	5.85
662.29	5.85
662.322	-10.15
662.355	-15.15
662.387	6.85
662.419	4.85
662.451	18.85
662.483	25.85
662.515	8.85
662.547	8.85
662.58	-18.15
662.612	2.85
662.644	-8.15
662.676	1.85
662.708	26.85
662.74	2.85
662.772	7.85
662.804	11.85
662.836	7.85
662.869	-7.15
662.901	10.85
662.933	6.85
662.965	8.85
662.997	29.85
663.029	6.85
663.061	-5.15
663.093	4.85
663.125	8.85
663.157	4.85
663.189	1.85
663.221	25.85
663.254	8.85
663.286	24.85
663.318	13.85
663.35	-2.15
663.382	-0.15
663.414	8.85
663.446	10.85
663.478	8.85
663.51	21.85
663.542	-7.15
663.574	4.85
663.606	15.85
663.638	-11.15
663.67	2.85
663.702	15.85
663.734	13.85
663.766	-1.15
663.798	-9.15
663.83	-1.15
663.862	11.85
663.894	7.85
663.926	1.85
663.958	5.85
663.99	10.85
664.022	9.85
664.054	19.85
664.086	3.85
664.118	0.85
664.15	-7.15
664.182	4.85
664.214	10.85
664.246	13.85
664.278	20.85
664.31	16.85
664.342	-0.15
664.374	-2.15
664.406	4.85
664.438	-17.15
664.47	1.85
664.502	5.85
664.534	15.85
664.566	-11.15
664.598	7.85
664.63	-7.15
664.662	-2.15
664.693	4.85
664.725	1.85
664.757	2.85
664.789	-10.15
664.821	6.85
664.853	19.85
664.885	-15.15
664.917	0.85
664.949	12.85
664.981	21.85
665.013	8.85
665.045	5.85
665.076	0.85
665.108	-4.15
665.14	15.85
665.172	10.85
665.204	2.85
665.236	7.85
665.268	20.85
665.3	7.85
665.331	-5.15
665.363	7.85
665.395	6.85
665.427	7.85
665.459	6.85
665.491	17.85
665.523	10.85
665.555	-15.15
665.586	3.85
665.618	8.85
665.65	-21.15
665.682	16.85
665.714	15.85
665.746	17.85
665.777	13.85
665.809	-4.15
665.841	2.85
665.873	-11.15
665.905	8.85
665.937	6.85
665.968	-0.15
666	0.85
666.032	-4.15
666.064	-2.15
666.096	2.85
666.127	8.85
666.159	17.85
666.191	12.85
666.223	6.85
666.255	-3.15
666.286	4.85
666.318	-2.15
666.35	23.85
666.382	13.85
666.413	-0.15
666.445	-0.15
666.477	-0.15
666.509	-3.15
666.54	-2.15
666.572	7.85
666.604	-5.15
666.636	4.85
666.667	17.85
666.699	-7.15
666.731	18.85
666.763	-3.15
666.794	22.85
666.826	18.85
666.858	-2.15
666.89	15.85
666.921	10.85
666.953	9.85
666.985	17.85
667.017	22.85
667.048	14.85
667.08	9.85
667.112	-0.15
667.143	2.85
667.175	15.85
667.207	4.85
667.238	7.85
667.27	10.85
667.302	9.85
667.334	-4.15
667.365	18.85
667.397	9.85
667.429	-3.15
667.46	18.85
667.492	10.85
667.524	5.85
667.555	-3.15
667.587	4.85
667.619	1.85
667.65	-4.15
667.682	9.85
667.714	19.85
667.745	17.85
667.777	22.85
667.808	14.85
667.84	12.85
667.872	-3.15
667.903	10.85
667.935	-3.15
667.967	6.85
667.998	1.85
668.03	3.85
668.061	7.85
668.093	-0.15
668.125	11.85
668.156	11.85
668.188	-6.15
668.22	-1.15
668.251	18.85
668.283	11.85
668.314	6.85
668.346	5.85
668.377	-16.15
668.409	6.85
668.441	11.85
668.472	12.85
668.504	19.85
668.535	14.85
668.567	7.85
668.599	27.85
668.63	10.85
668.662	1.85
668.693	14.85
668.725	2.85
668.756	8.85
668.788	0.85
668.819	1.85
668.851	-0.15
668.882	6.85
668.914	-2.15
668.946	-1.15
668.977	-7.15
669.009	0.85
669.04	-8.15
669.072	4.85
669.103	-3.15
669.135	-3.15
669.166	11.85
669.198	3.85
669.229	11.85
669.261	23.85
669.292	5.85
669.324	16.85
669.355	18.85
669.387	-4.15
669.418	-7.15
669.45	-7.15
669.481	7.85
669.513	21.85
669.544	31.85
669.576	3.85
669.607	13.85
669.639	13.85
669.67	11.85
669.701	10.85
669.733	-8.15
669.764	1.85
669.796	9.85
669.827	-6.15
669.859	7.85
669.89	4.85
669.922	7.85
669.953	-0.15
669.985	10.85
670.016	11.85
670.047	8.85
670.079	2.85
670.11	7.85
670.142	6.85
670.173	7.85
670.204	5.85
670.236	11.85
670.267	5.85
670.299	25.85
670.33	22.85
670.362	2.85
670.393	-11.15
670.424	7.85
670.456	-11.15
670.487	-4.15
670.518	7.85
670.55	17.85
670.581	15.85
670.613	7.85
670.644	-10.15
670.675	-5.15
670.707	-1.15
670.738	3.85
670.769	4.85
670.801	-18.15
670.832	13.85
670.864	8.85
670.895	11.85
670.926	-7.15
670.958	12.85
670.989	-0.15
671.02	-1.15
671.052	-1.15
671.083	2.85
671.114	14.85
671.146	3.85
671.177	6.85
671.208	7.85
671.24	-6.15
671.271	2.85
671.302	6.85
671.333	-1.15
671.365	-3.15
671.396	-7.15
671.427	7.85
671.459	7.85
671.49	20.85
671.521	12.85
671.553	-2.15
671.584	3.85
671.615	-7.15
671.646	21.85
671.678	22.85
671.709	-0.15
671.74	-15.15
671.771	6.85
671.803	-2.15
671.834	8.85
671.865	0.85
671.896	16.85
671.928	9.85
671.959	-7.15
671.99	-1.15
672.021	14.85
672.053	9.85
672.084	13.85
672.115	12.85
672.146	10.85
672.178	-9.15
672.209	2.85
672.24	15.85
672.271	10.85
672.303	1.85
672.334	8.85
672.365	11.85
672.396	-0.15
672.427	17.85
672.459	4.85
672.49	22.85
672.521	17.85
672.552	18.85
672.583	19.85
672.615	4.85
672.646	7.85
672.677	-4.15
672.708	-7.15
672.739	4.85
672.77	19.85
672.802	25.85
672.833	-5.15
672.864	7.85
672.895	-8.15
672.926	-11.15
672.957	-5.15
672.989	1.85
673.02	18.85
673.051	0.85
673.082	8.85
673.113	-12.15
673.144	4.85
673.175	10.85
673.206	-11.15
673.238	7.85
673.269	13.85
673.3	-13.15
673.331	21.85
673.362	11.85
673.393	18.85
673.424	14.85
673.455	11.85
673.487	12.85
673.518	16.85
673.549	0.85
673.58	11.85
673.611	17.85
673.642	6.85
673.673	-9.15
673.704	-7.15
673.735	18.85
673.766	7.85
673.797	12.85
673.828	15.85
673.86	-4.15
673.891	-1.15
673.922	-3.15
673.953	5.85
673.984	8.85
674.015	6.85
674.046	-10.15
674.077	8.85
674.108	-8.15
674.139	-11.15
674.17	13.85
674.201	2.85
674.232	0.85
674.263	-5.15
674.294	5.85
674.325	-11.15
674.356	8.85
674.387	18.85
674.418	4.85
674.449	-11.15
674.48	-14.15
674.511	2.85
674.542	1.85
674.573	-12.15
674.604	14.85
674.635	-6.15
674.666	15.85
674.697	-12.15
674.728	7.85
674.759	11.85
674.79	-7.15
674.821	0.85
674.852	7.85
674.883	1.85
674.914	10.85
674.945	7.85
674.976	-6.15
675.007	2.85
675.038	-6.15
675.069	-2.15
675.1	-1.15
675.131	2.85
675.162	1.85
675.193	0.85
675.224	-1.15
675.254	5.85
675.285	1.85
675.316	6.85
675.347	-5.15
675.378	-4.15
675.409	-14.15
675.44	21.85
675.471	-1.15
675.502	-1.15
675.533	8.85
675.564	15.85
675.595	16.85
675.625	19.85
675.656	7.85
675.687	-6.15
675.718	-18.15
675.749	7.85
675.78	13.85
675.811	4.85
675.842	-1.15
675.873	7.85
675.903	7.85
675.934	-1.15
675.965	16.85
675.996	-18.15
676.027	11.85
676.058	10.85
676.089	-0.15
676.119	-0.15
676.15	-18.15
676.181	-7.15
676.212	5.85
676.243	10.85
676.274	2.85
676.304	18.85
676.335	-7.15
676.366	7.85
676.397	9.85
676.428	6.85
676.459	16.85
676.489	13.85
676.52	4.85
676.551	10.85
676.582	-3.15
676.613	10.85
676.643	-0.15
676.674	4.85
676.705	13.85
676.736	6.85
676.767	17.85
676.797	12.85
676.828	13.85
676.859	5.85
676.89	3.85
676.92	6.85
676.951	8.85
676.982	17.85
677.013	-0.15
677.044	25.85
677.074	3.85
677.105	7.85
677.136	15.85
677.167	17.85
677.197	5.85
677.228	-6.15
677.259	-21.15
677.289	-5.15
677.32	-17.15
677.351	0.85
677.382	12.85
677.412	-3.15
677.443	28.85
677.474	-4.15
677.505	10.85
677.535	-1.15
677.566	-0.15
677.597	-10.15
677.627	-9.15
677.658	0.85
677.689	-6.15
677.72	-0.15
677.75	0.85
677.781	4.85
677.812	16.85
677.842	10.85
677.873	7.85
677.904	13.85
677.934	9.85
677.965	-4.15
677.996	-28.15
678.026	-19.15
678.057	-11.15
678.088	-14.15
678.118	-1.15
678.149	-1.15
678.18	-11.15
678.21	10.85
678.241	-0.15
678.272	7.85
678.302	-1.15
678.333	4.85
678.363	19.85
678.394	8.85
678.425	-5.15
678.455	15.85
678.486	13.85
678.517	15.85
678.547	14.85
678.578	9.85
678.608	-5.15
678.639	4.85
678.67	14.85
678.7	-1.15
678.731	-2.15
678.761	-16.15
678.792	-1.15
678.823	19.85
678.853	1.85
678.884	-7.15
678.914	15.85
678.945	4.85
678.975	-1.15
679.006	8.85
679.037	5.85
679.067	41.85
679.098	5.85
679.128	1.85
679.159	1.85
679.189	10.85
679.22	-9.15
679.25	-10.15
679.281	-6.15
679.312	-9.15
679.342	15.85
679.373	34.85
679.403	11.85
679.434	3.85
679.464	0.85
679.495	7.85
679.525	-0.15
679.556	-0.15
679.586	1.85
679.617	14.85
679.647	16.85
679.678	0.85
679.708	-8.15
679.739	4.85
679.769	-1.15
679.8	-0.15
679.83	3.85
679.861	9.85
679.891	-1.15
679.922	-14.15
679.952	7.85
679.983	17.85
680.013	5.85
680.044	-24.15
680.074	3.85
680.105	18.85
680.135	8.85
680.165	9.85
680.196	10.85
680.226	5.85
680.257	15.85
680.287	-3.15
680.318	3.85
680.348	-3.15
680.379	12.85
680.409	8.85
680.439	-8.15
680.47	-5.15
680.5	5.85
680.531	-1.15
680.561	1.85
680.592	7.85
680.622	27.85
680.652	4.85
680.683	14.85
680.713	-5.15
680.744	1.85
680.774	-2.15
680.804	5.85
680.835	-4.15
680.865	-0.15
680.896	8.85
680.926	28.85
680.956	21.85
680.987	11.85
681.017	8.85
681.047	16.85
681.078	4.85
681.108	10.85
681.139	2.85
681.169	7.85
681.199	2.85
681.23	19.85
681.26	8.85
681.29	11.85
681.321	-8.15
681.351	3.85
681.381	-5.15
681.412	2.85
681.442	16.85
681.472	8.85
681.503	11.85
681.533	-3.15
681.563	4.85
681.594	2.85
681.624	0.85
681.654	2.85
681.685	-2.15
681.715	7.85
681.745	-4.15
681.775	0.85
681.806	15.85
681.836	0.85
681.866	-15.15
681.897	-3.15
681.927	-8.15
681.957	-20.15
681.987	21.85
682.018	15.85
682.048	16.85
682.078	9.85
682.109	4.85
682.139	23.85
682.169	1.85
682.199	-2.15
682.23	-0.15
682.26	20.85
682.29	8.85
682.32	-8.15
682.351	12.85
682.381	7.85
682.411	1.85
682.441	-7.15
682.472	4.85
682.502	3.85
682.532	4.85
682.562	1.85
682.592	21.85
682.623	12.85
682.653	-2.15
682.683	-12.15
682.713	8.85
682.743	17.85
682.774	16.85
