Data from HighRes_H2_15_09_11_07_2024_HR4C61891__123__15-11-08-701.txt Node

Date: Thu Nov 07 15:11:08 EST 2024
User: crc00042
Spectrometer: HR4C6189
Trigger mode: 4
Integration Time (sec): 1.000000E-1
Scans to average: 1
Electric dark correction enabled: true
Nonlinearity correction enabled: false
Boxcar width: 0
XAxis mode: Wavelengths
Number of Pixels in Spectrum: 3648
>>>>>Begin Spectral Data<<<<<
639.567	-29.54
639.602	-29.54
639.636	-29.54
639.67	-24.54
639.704	-22.54
639.738	0.46
639.773	18.46
639.807	-14.54
639.841	-0.54
639.875	-4.54
639.909	-7.54
639.943	4.46
639.978	-3.54
640.012	1.46
640.046	15.46
640.08	2.46
640.114	-1.54
640.148	-10.54
640.182	-18.54
640.217	4.46
640.251	9.46
640.285	5.46
640.319	-6.54
640.353	4.46
640.387	8.46
640.421	-6.54
640.455	-7.54
640.49	4.46
640.524	-10.54
640.558	16.46
640.592	-7.54
640.626	-1.54
640.66	-7.54
640.694	5.46
640.728	0.46
640.762	12.46
640.796	29.46
640.83	23.46
640.865	-13.54
640.899	3.46
640.933	4.46
640.967	-6.54
641.001	6.46
641.035	9.46
641.069	-3.54
641.103	-23.54
641.137	-4.54
641.171	-13.54
641.205	4.46
641.239	2.46
641.273	6.46
641.307	19.46
641.341	-0.54
641.375	-7.54
641.409	-1.54
641.443	0.46
641.477	2.46
641.511	-2.54
641.545	7.46
641.579	2.46
641.614	6.46
641.648	3.46
641.682	-8.54
641.716	8.46
641.75	22.46
641.784	6.46
641.818	9.46
641.852	-0.54
641.886	4.46
641.919	34.46
641.953	4.46
641.987	-15.54
642.021	1.46
642.055	-2.54
642.089	-1.54
642.123	-13.54
642.157	-1.54
642.191	0.46
642.225	10.46
642.259	7.46
642.293	-0.54
642.327	7.46
642.361	-11.54
642.395	6.46
642.429	13.46
642.463	9.46
642.497	4.46
642.531	8.46
642.565	-12.54
642.599	20.46
642.633	-1.54
642.666	20.46
642.7	12.46
642.734	19.46
642.768	0.46
642.802	-6.54
642.836	-3.54
642.87	-0.54
642.904	-2.54
642.938	16.46
642.972	3.46
643.005	-5.54
643.039	9.46
643.073	-2.54
643.107	8.46
643.141	6.46
643.175	-3.54
643.209	-4.54
643.243	3.46
643.276	3.46
643.31	0.46
643.344	11.46
643.378	-6.54
643.412	1.46
643.446	3.46
643.48	-15.54
643.513	7.46
643.547	3.46
643.581	-8.54
643.615	22.46
643.649	-4.54
643.683	11.46
643.716	7.46
643.75	7.46
643.784	0.46
643.818	0.46
643.852	8.46
643.886	10.46
643.919	8.46
643.953	2.46
643.987	9.46
644.021	8.46
644.055	14.46
644.088	4.46
644.122	-7.54
644.156	7.46
644.19	12.46
644.224	-3.54
644.257	6.46
644.291	8.46
644.325	11.46
644.359	3.46
644.392	8.46
644.426	3.46
644.46	-7.54
644.494	21.46
644.527	6.46
644.561	13.46
644.595	-3.54
644.629	-0.54
644.662	3.46
644.696	3.46
644.73	-6.54
644.764	7.46
644.797	-7.54
644.831	5.46
644.865	14.46
644.899	7.46
644.932	22.46
644.966	2.46
645	1.46
645.033	11.46
645.067	-0.54
645.101	6.46
645.135	3.46
645.168	3.46
645.202	-5.54
645.236	8.46
645.269	3.46
645.303	-8.54
645.337	-14.54
645.37	2.46
645.404	4.46
645.438	16.46
645.471	-4.54
645.505	24.46
645.539	-5.54
645.572	-26.54
645.606	-8.54
645.64	19.46
645.673	10.46
645.707	23.46
645.741	3.46
645.774	-20.54
645.808	2.46
645.842	-15.54
645.875	2.46
645.909	-5.54
645.943	3.46
645.976	5.46
646.01	1.46
646.043	18.46
646.077	9.46
646.111	2.46
646.144	-1.54
646.178	14.46
646.212	-23.54
646.245	-7.54
646.279	11.46
646.312	14.46
646.346	20.46
646.38	9.46
646.413	14.46
646.447	8.46
646.48	-0.54
646.514	7.46
646.547	-2.54
646.581	7.46
646.615	4.46
646.648	1.46
646.682	10.46
646.715	-2.54
646.749	9.46
646.782	-8.54
646.816	-3.54
646.85	17.46
646.883	-9.54
646.917	3.46
646.95	-0.54
646.984	9.46
647.017	-8.54
647.051	8.46
647.084	2.46
647.118	-2.54
647.151	-7.54
647.185	2.46
647.218	-20.54
647.252	7.46
647.285	18.46
647.319	-16.54
647.353	0.46
647.386	27.46
647.42	6.46
647.453	-1.54
647.487	-9.54
647.52	-3.54
647.553	9.46
647.587	14.46
647.62	0.46
647.654	6.46
647.687	19.46
647.721	0.46
647.754	9.46
647.788	-0.54
647.821	7.46
647.855	-7.54
647.888	6.46
647.922	21.46
647.955	20.46
647.989	14.46
648.022	6.46
648.055	-7.54
648.089	-10.54
648.122	13.46
648.156	1.46
648.189	-6.54
648.223	8.46
648.256	22.46
648.29	0.46
648.323	3.46
648.356	0.46
648.39	13.46
648.423	5.46
648.457	-15.54
648.49	-1.54
648.523	27.46
648.557	5.46
648.59	9.46
648.624	8.46
648.657	-1.54
648.69	16.46
648.724	11.46
648.757	21.46
648.791	15.46
648.824	5.46
648.857	11.46
648.891	14.46
648.924	2.46
648.957	32.46
648.991	-7.54
649.024	10.46
649.057	-2.54
649.091	-16.54
649.124	12.46
649.158	9.46
649.191	17.46
649.224	-4.54
649.258	4.46
649.291	12.46
649.324	6.46
649.358	14.46
649.391	24.46
649.424	11.46
649.458	5.46
649.491	-8.54
649.524	-6.54
649.557	0.46
649.591	-8.54
649.624	10.46
649.657	-1.54
649.691	-5.54
649.724	11.46
649.757	12.46
649.791	-6.54
649.824	27.46
649.857	24.46
649.89	10.46
649.924	-4.54
649.957	6.46
649.99	-24.54
650.023	5.46
650.057	10.46
650.09	-14.54
650.123	3.46
650.157	26.46
650.19	14.46
650.223	8.46
650.256	-3.54
650.29	1.46
650.323	4.46
650.356	1.46
650.389	-2.54
650.423	-10.54
650.456	-10.54
650.489	11.46
650.522	14.46
650.555	18.46
650.589	19.46
650.622	-7.54
650.655	24.46
650.688	-12.54
650.721	2.46
650.755	16.46
650.788	25.46
650.821	3.46
650.854	25.46
650.887	4.46
650.921	4.46
650.954	-0.54
650.987	6.46
651.02	-10.54
651.053	-6.54
651.087	-6.54
651.12	2.46
651.153	-3.54
651.186	-6.54
651.219	-18.54
651.252	4.46
651.286	13.46
651.319	3.46
651.352	7.46
651.385	-7.54
651.418	9.46
651.451	16.46
651.484	2.46
651.518	-1.54
651.551	24.46
651.584	-1.54
651.617	17.46
651.65	16.46
651.683	10.46
651.716	5.46
651.749	-9.54
651.783	8.46
651.816	9.46
651.849	10.46
651.882	9.46
651.915	-4.54
651.948	6.46
651.981	2.46
652.014	-19.54
652.047	-1.54
652.08	-7.54
652.114	-1.54
652.147	0.46
652.18	8.46
652.213	21.46
652.246	-3.54
652.279	-4.54
652.312	13.46
652.345	-2.54
652.378	23.46
652.411	25.46
652.444	14.46
652.477	13.46
652.51	4.46
652.543	-7.54
652.576	18.46
652.609	-0.54
652.642	-6.54
652.675	22.46
652.709	0.46
652.742	5.46
652.775	-2.54
652.808	13.46
652.841	-1.54
652.874	5.46
652.907	4.46
652.94	-12.54
652.973	-16.54
653.006	5.46
653.039	2.46
653.072	9.46
653.105	10.46
653.138	-6.54
653.171	8.46
653.204	7.46
653.237	9.46
653.27	-6.54
653.303	8.46
653.336	19.46
653.368	-6.54
653.401	21.46
653.434	-14.54
653.467	10.46
653.5	3.46
653.533	-18.54
653.566	5.46
653.599	0.46
653.632	1.46
653.665	-4.54
653.698	-11.54
653.731	1.46
653.764	20.46
653.797	8.46
653.83	-2.54
653.863	14.46
653.896	2.46
653.929	0.46
653.961	14.46
653.994	-7.54
654.027	-9.54
654.06	-1.54
654.093	9.46
654.126	12.46
654.159	-7.54
654.192	-15.54
654.225	3.46
654.258	-3.54
654.29	7.46
654.323	10.46
654.356	6.46
654.389	22.46
654.422	19.46
654.455	0.46
654.488	-3.54
654.521	-11.54
654.553	8.46
654.586	20.46
654.619	1.46
654.652	-6.54
654.685	11.46
654.718	-0.54
654.751	17.46
654.783	2.46
654.816	19.46
654.849	11.46
654.882	-1.54
654.915	-6.54
654.948	-1.54
654.98	17.46
655.013	4.46
655.046	-2.54
655.079	-1.54
655.112	6.46
655.144	0.46
655.177	4.46
655.21	15.46
655.243	9.46
655.276	5.46
655.308	-1.54
655.341	7.46
655.374	0.46
655.407	0.46
655.44	5.46
655.472	14.46
655.505	20.46
655.538	0.46
655.571	8.46
655.603	24.46
655.636	12.46
655.669	9.46
655.702	16.46
655.734	4.46
655.767	10.46
655.8	11.46
655.833	29.46
655.865	20.46
655.898	20.46
655.931	24.46
655.964	32.46
655.996	54.46
656.029	49.46
656.062	52.46
656.095	74.46
656.127	54.46
656.16	81.46
656.193	138.46
656.225	173.46
656.258	286.46
656.291	504.46
656.324	1091.46
656.356	3367.46
656.389	7558.46
656.422	6092.46
656.454	2083.46
656.487	704.46
656.52	260.46
656.552	124.46
656.585	65.46
656.618	56.46
656.65	40.46
656.683	15.46
656.716	23.46
656.748	25.46
656.781	11.46
656.814	-2.54
656.846	4.46
656.879	-2.54
656.912	12.46
656.944	-10.54
656.977	-20.54
657.01	4.46
657.042	2.46
657.075	13.46
657.108	0.46
657.14	4.46
657.173	20.46
657.205	22.46
657.238	12.46
657.271	16.46
657.303	2.46
657.336	-8.54
657.369	-14.54
657.401	-21.54
657.434	-8.54
657.466	17.46
657.499	-5.54
657.532	7.46
657.564	8.46
657.597	4.46
657.629	7.46
657.662	-8.54
657.694	5.46
657.727	-6.54
657.76	31.46
657.792	-9.54
657.825	-6.54
657.857	-3.54
657.89	17.46
657.922	26.46
657.955	2.46
657.987	11.46
658.02	5.46
658.053	20.46
658.085	-4.54
658.118	13.46
658.15	1.46
658.183	15.46
658.215	-8.54
658.248	-8.54
658.28	-17.54
658.313	14.46
658.345	25.46
658.378	-0.54
658.41	-7.54
658.443	3.46
658.475	-6.54
658.508	-7.54
658.54	13.46
658.573	1.46
658.605	14.46
658.638	2.46
658.67	7.46
658.703	-6.54
658.735	-5.54
658.768	2.46
658.8	-7.54
658.833	20.46
658.865	1.46
658.898	26.46
658.93	12.46
658.963	1.46
658.995	-11.54
659.028	5.46
659.06	-7.54
659.092	-5.54
659.125	1.46
659.157	9.46
659.19	14.46
659.222	13.46
659.255	2.46
659.287	-7.54
659.32	-15.54
659.352	2.46
659.384	7.46
659.417	-7.54
659.449	12.46
659.482	10.46
659.514	-16.54
659.546	-9.54
659.579	-8.54
659.611	-3.54
659.644	2.46
659.676	-6.54
659.708	-6.54
659.741	-21.54
659.773	14.46
659.806	9.46
659.838	8.46
659.87	9.46
659.903	-3.54
659.935	-8.54
659.967	7.46
660	4.46
660.032	-3.54
660.065	14.46
660.097	14.46
660.129	4.46
660.162	-3.54
660.194	1.46
660.226	4.46
660.259	1.46
660.291	1.46
660.323	-2.54
660.356	12.46
660.388	11.46
660.42	9.46
660.453	20.46
660.485	15.46
660.517	15.46
660.55	21.46
660.582	0.46
660.614	17.46
660.647	6.46
660.679	-7.54
660.711	2.46
660.743	-16.54
660.776	-8.54
660.808	5.46
660.84	7.46
660.873	5.46
660.905	20.46
660.937	4.46
660.969	3.46
661.002	-16.54
661.034	16.46
661.066	14.46
661.099	8.46
661.131	13.46
661.163	8.46
661.195	0.46
661.228	14.46
661.26	7.46
661.292	0.46
661.324	11.46
661.357	6.46
661.389	13.46
661.421	13.46
661.453	-0.54
661.485	3.46
661.518	-0.54
661.55	-8.54
661.582	-20.54
661.614	-15.54
661.647	-17.54
661.679	3.46
661.711	3.46
661.743	-7.54
661.775	-13.54
661.808	0.46
661.84	-19.54
661.872	6.46
661.904	0.46
661.936	5.46
661.969	-8.54
662.001	-0.54
662.033	9.46
662.065	-5.54
662.097	9.46
662.129	3.46
662.162	-10.54
662.194	-5.54
662.226	-20.54
662.258	4.46
662.29	-3.54
662.322	-3.54
662.355	2.46
662.387	21.46
662.419	14.46
662.451	10.46
662.483	19.46
662.515	-0.54
662.547	-10.54
662.58	-6.54
662.612	-27.54
662.644	-41.54
662.676	-15.54
662.708	23.46
662.74	-8.54
662.772	-14.54
662.804	-3.54
662.836	7.46
662.869	1.46
662.901	26.46
662.933	22.46
662.965	15.46
662.997	19.46
663.029	-13.54
663.061	-5.54
663.093	3.46
663.125	17.46
663.157	4.46
663.189	4.46
663.221	18.46
663.254	-12.54
663.286	14.46
663.318	4.46
663.35	16.46
663.382	-7.54
663.414	9.46
663.446	-4.54
663.478	-7.54
663.51	19.46
663.542	-3.54
663.574	10.46
663.606	2.46
663.638	-5.54
663.67	9.46
663.702	4.46
663.734	-13.54
663.766	12.46
663.798	-5.54
663.83	8.46
663.862	24.46
663.894	15.46
663.926	8.46
663.958	1.46
663.99	3.46
664.022	-15.54
664.054	11.46
664.086	-6.54
664.118	-7.54
664.15	-6.54
664.182	-5.54
664.214	-1.54
664.246	6.46
664.278	5.46
664.31	18.46
664.342	0.46
664.374	-6.54
664.406	0.46
664.438	-7.54
664.47	1.46
664.502	-0.54
664.534	3.46
664.566	-19.54
664.598	8.46
664.63	-2.54
664.662	1.46
664.693	-6.54
664.725	7.46
664.757	16.46
664.789	-21.54
664.821	-5.54
664.853	12.46
664.885	-7.54
664.917	-2.54
664.949	28.46
664.981	19.46
665.013	5.46
665.045	-5.54
665.076	-0.54
665.108	5.46
665.14	-0.54
665.172	6.46
665.204	10.46
665.236	0.46
665.268	12.46
665.3	-7.54
665.331	-15.54
665.363	7.46
665.395	0.46
665.427	-7.54
665.459	1.46
665.491	-0.54
665.523	9.46
665.555	-0.54
665.586	-5.54
665.618	12.46
665.65	-2.54
665.682	-2.54
665.714	9.46
665.746	-6.54
665.777	5.46
665.809	7.46
665.841	-6.54
665.873	3.46
665.905	-16.54
665.937	8.46
665.968	17.46
666	5.46
666.032	-14.54
666.064	11.46
666.096	-3.54
666.127	12.46
666.159	16.46
666.191	4.46
666.223	1.46
666.255	-3.54
666.286	3.46
666.318	9.46
666.35	21.46
666.382	-1.54
666.413	-8.54
666.445	-18.54
666.477	-8.54
666.509	-6.54
666.54	6.46
666.572	-3.54
666.604	6.46
666.636	7.46
666.667	10.46
666.699	17.46
666.731	-0.54
666.763	-5.54
666.794	-1.54
666.826	10.46
666.858	0.46
666.89	17.46
666.921	2.46
666.953	2.46
666.985	10.46
667.017	26.46
667.048	11.46
667.08	0.46
667.112	-5.54
667.143	-9.54
667.175	7.46
667.207	4.46
667.238	7.46
667.27	4.46
667.302	-1.54
667.334	-6.54
667.365	15.46
667.397	1.46
667.429	21.46
667.46	8.46
667.492	-19.54
667.524	-5.54
667.555	-2.54
667.587	-5.54
667.619	-11.54
667.65	-18.54
667.682	12.46
667.714	9.46
667.745	-11.54
667.777	1.46
667.808	17.46
667.84	-3.54
667.872	-1.54
667.903	37.46
667.935	-0.54
667.967	14.46
667.998	7.46
668.03	-0.54
668.061	23.46
668.093	1.46
668.125	1.46
668.156	6.46
668.188	-9.54
668.22	-6.54
668.251	2.46
668.283	6.46
668.314	12.46
668.346	2.46
668.377	2.46
668.409	-14.54
668.441	9.46
668.472	4.46
668.504	16.46
668.535	4.46
668.567	4.46
668.599	1.46
668.63	4.46
668.662	-8.54
668.693	24.46
668.725	6.46
668.756	8.46
668.788	1.46
668.819	5.46
668.851	5.46
668.882	-12.54
668.914	-8.54
668.946	9.46
668.977	-13.54
669.009	5.46
669.04	3.46
669.072	-10.54
669.103	2.46
669.135	-5.54
669.166	19.46
669.198	3.46
669.229	8.46
669.261	9.46
669.292	-1.54
669.324	2.46
669.355	10.46
669.387	-2.54
669.418	12.46
669.45	-4.54
669.481	2.46
669.513	1.46
669.544	4.46
669.576	8.46
669.607	20.46
669.639	22.46
669.67	1.46
669.701	1.46
669.733	-13.54
669.764	-7.54
669.796	5.46
669.827	1.46
669.859	-0.54
669.89	1.46
669.922	6.46
669.953	11.46
669.985	-5.54
670.016	12.46
670.047	1.46
670.079	-0.54
670.11	0.46
670.142	-7.54
670.173	3.46
670.204	-7.54
670.236	-5.54
670.267	-11.54
670.299	9.46
670.33	8.46
670.362	18.46
670.393	-7.54
670.424	7.46
670.456	-6.54
670.487	8.46
670.518	-3.54
670.55	-8.54
670.581	-1.54
670.613	7.46
670.644	-0.54
670.675	-5.54
670.707	0.46
670.738	7.46
670.769	-4.54
670.801	-8.54
670.832	-4.54
670.864	-10.54
670.895	-9.54
670.926	-6.54
670.958	-4.54
670.989	6.46
671.02	-0.54
671.052	1.46
671.083	-4.54
671.114	-0.54
671.146	9.46
671.177	-9.54
671.208	-4.54
671.24	-23.54
671.271	4.46
671.302	17.46
671.333	-18.54
671.365	-3.54
671.396	-9.54
671.427	5.46
671.459	2.46
671.49	1.46
671.521	-7.54
671.553	-4.54
671.584	-0.54
671.615	0.46
671.646	3.46
671.678	4.46
671.709	0.46
671.74	-14.54
671.771	-14.54
671.803	-18.54
671.834	4.46
671.865	-3.54
671.896	14.46
671.928	2.46
671.959	-11.54
671.99	-12.54
672.021	-17.54
672.053	-12.54
672.084	3.46
672.115	7.46
672.146	-10.54
672.178	1.46
672.209	12.46
672.24	-16.54
672.271	32.46
672.303	2.46
672.334	-7.54
672.365	-26.54
672.396	2.46
672.427	-7.54
672.459	3.46
672.49	17.46
672.521	-13.54
672.552	-3.54
672.583	7.46
672.615	10.46
672.646	12.46
672.677	0.46
672.708	0.46
672.739	-0.54
672.77	0.46
672.802	-1.54
672.833	-15.54
672.864	6.46
672.895	-22.54
672.926	6.46
672.957	-16.54
672.989	9.46
673.02	3.46
673.051	6.46
673.082	17.46
673.113	6.46
673.144	16.46
673.175	4.46
673.206	1.46
673.238	-4.54
673.269	2.46
673.3	3.46
673.331	10.46
673.362	4.46
673.393	6.46
673.424	5.46
673.455	15.46
673.487	3.46
673.518	9.46
673.549	5.46
673.58	-14.54
673.611	5.46
673.642	4.46
673.673	-26.54
673.704	14.46
673.735	-6.54
673.766	-11.54
673.797	-6.54
673.828	3.46
673.86	-3.54
673.891	-14.54
673.922	-9.54
673.953	1.46
673.984	-4.54
674.015	11.46
674.046	-1.54
674.077	21.46
674.108	4.46
674.139	-10.54
674.17	-0.54
674.201	-16.54
674.232	-11.54
674.263	-11.54
674.294	-13.54
674.325	-2.54
674.356	-2.54
674.387	4.46
674.418	6.46
674.449	-15.54
674.48	-14.54
674.511	0.46
674.542	12.46
674.573	9.46
674.604	4.46
674.635	-2.54
674.666	4.46
674.697	9.46
674.728	-8.54
674.759	2.46
674.79	-8.54
674.821	-3.54
674.852	-13.54
674.883	-4.54
674.914	-8.54
674.945	-7.54
674.976	2.46
675.007	-21.54
675.038	-15.54
675.069	-7.54
675.1	-7.54
675.131	-1.54
675.162	-12.54
675.193	-9.54
675.224	-22.54
675.254	5.46
675.285	-8.54
675.316	5.46
675.347	1.46
675.378	-20.54
675.409	-0.54
675.44	14.46
675.471	-10.54
675.502	-27.54
675.533	-2.54
675.564	-2.54
675.595	-4.54
675.625	4.46
675.656	0.46
675.687	-0.54
675.718	-3.54
675.749	-5.54
675.78	3.46
675.811	2.46
675.842	17.46
675.873	9.46
675.903	11.46
675.934	-4.54
675.965	-1.54
675.996	-1.54
676.027	-0.54
676.058	-8.54
676.089	6.46
676.119	2.46
676.15	3.46
676.181	0.46
676.212	-9.54
676.243	6.46
676.274	-4.54
676.304	9.46
676.335	-3.54
676.366	-7.54
676.397	-18.54
676.428	4.46
676.459	-2.54
676.489	6.46
676.52	16.46
676.551	-10.54
676.582	0.46
676.613	-5.54
676.643	-15.54
676.674	2.46
676.705	-13.54
676.736	0.46
676.767	19.46
676.797	23.46
676.828	-1.54
676.859	20.46
676.89	-3.54
676.92	-1.54
676.951	-3.54
676.982	10.46
677.013	-0.54
677.044	11.46
677.074	1.46
677.105	-13.54
677.136	-5.54
677.167	0.46
677.197	20.46
677.228	4.46
677.259	3.46
677.289	-7.54
677.32	-23.54
677.351	-8.54
677.382	-19.54
677.412	-2.54
677.443	4.46
677.474	-0.54
677.505	-10.54
677.535	-2.54
677.566	9.46
677.597	-11.54
677.627	-9.54
677.658	4.46
677.689	11.46
677.72	11.46
677.75	-4.54
677.781	-3.54
677.812	11.46
677.842	4.46
677.873	0.46
677.904	-10.54
677.934	-14.54
677.965	-10.54
677.996	-26.54
678.026	-1.54
678.057	2.46
678.088	-5.54
678.118	2.46
678.149	-7.54
678.18	10.46
678.21	4.46
678.241	0.46
678.272	-21.54
678.302	-3.54
678.333	11.46
678.363	16.46
678.394	3.46
678.425	12.46
678.455	19.46
678.486	19.46
678.517	-7.54
678.547	-1.54
678.578	7.46
678.608	-2.54
678.639	1.46
678.67	2.46
678.7	6.46
678.731	2.46
678.761	-3.54
678.792	8.46
678.823	2.46
678.853	11.46
678.884	-7.54
678.914	-3.54
678.945	8.46
678.975	-11.54
679.006	3.46
679.037	-7.54
679.067	14.46
679.098	21.46
679.128	-10.54
679.159	2.46
679.189	10.46
679.22	-4.54
679.25	12.46
679.281	-1.54
679.312	7.46
679.342	2.46
679.373	23.46
679.403	1.46
679.434	12.46
679.464	5.46
679.495	6.46
679.525	10.46
679.556	0.46
679.586	13.46
679.617	15.46
679.647	6.46
679.678	3.46
679.708	16.46
679.739	2.46
679.769	3.46
679.8	-3.54
679.83	-2.54
679.861	10.46
679.891	5.46
679.922	-8.54
679.952	-0.54
679.983	5.46
680.013	-4.54
680.044	-9.54
680.074	1.46
680.105	0.46
680.135	11.46
680.165	8.46
680.196	8.46
680.226	7.46
680.257	-2.54
680.287	3.46
680.318	-6.54
680.348	-4.54
680.379	8.46
680.409	-3.54
680.439	3.46
680.47	-5.54
680.5	-2.54
680.531	-21.54
680.561	6.46
680.592	7.46
680.622	11.46
680.652	9.46
680.683	6.46
680.713	0.46
680.744	-7.54
680.774	-7.54
680.804	12.46
680.835	-9.54
680.865	-6.54
680.896	12.46
680.926	10.46
680.956	-2.54
680.987	10.46
681.017	-17.54
681.047	2.46
681.078	11.46
681.108	4.46
681.139	1.46
681.169	5.46
681.199	4.46
681.23	7.46
681.26	0.46
681.29	8.46
681.321	-3.54
681.351	-5.54
681.381	7.46
681.412	5.46
681.442	2.46
681.472	21.46
681.503	8.46
681.533	5.46
681.563	6.46
681.594	-4.54
681.624	3.46
681.654	2.46
681.685	5.46
681.715	16.46
681.745	-6.54
681.775	3.46
681.806	-7.54
681.836	5.46
681.866	0.46
681.897	-0.54
681.927	3.46
681.957	-11.54
681.987	10.46
682.018	-6.54
682.048	-15.54
682.078	9.46
682.109	17.46
682.139	16.46
682.169	4.46
682.199	8.46
682.23	-2.54
682.26	-10.54
682.29	-13.54
682.32	7.46
682.351	-5.54
682.381	-3.54
682.411	-7.54
682.441	1.46
682.472	-11.54
682.502	10.46
682.532	-4.54
682.562	0.46
682.592	11.46
682.623	10.46
682.653	-2.54
682.683	-10.54
