Data from HighRes_H2_15_09_11_07_2024_HR4C61891__94__15-11-05-802.txt Node

Date: Thu Nov 07 15:11:05 EST 2024
User: crc00042
Spectrometer: HR4C6189
Trigger mode: 4
Integration Time (sec): 1.000000E-1
Scans to average: 1
Electric dark correction enabled: true
Nonlinearity correction enabled: false
Boxcar width: 0
XAxis mode: Wavelengths
Number of Pixels in Spectrum: 3648
>>>>>Begin Spectral Data<<<<<
639.567	-23.85
639.602	-23.85
639.636	-23.85
639.67	-49.85
639.704	-20.85
639.738	11.15
639.773	19.15
639.807	-11.85
639.841	-5.85
639.875	3.15
639.909	-1.85
639.943	-17.85
639.978	-6.85
640.012	8.15
640.046	20.15
640.08	17.15
640.114	-9.85
640.148	-24.85
640.182	-8.85
640.217	-4.85
640.251	2.15
640.285	14.15
640.319	6.15
640.353	-3.85
640.387	4.15
640.421	-1.85
640.455	-0.85
640.49	-4.85
640.524	-1.85
640.558	-4.85
640.592	-3.85
640.626	-17.85
640.66	9.15
640.694	-11.85
640.728	5.15
640.762	6.15
640.796	17.15
640.83	14.15
640.865	-5.85
640.899	4.15
640.933	-1.85
640.967	-16.85
641.001	-11.85
641.035	2.15
641.069	8.15
641.103	-1.85
641.137	0.15
641.171	-20.85
641.205	8.15
641.239	-7.85
641.273	7.15
641.307	13.15
641.341	-0.85
641.375	2.15
641.409	-8.85
641.443	-3.85
641.477	-4.85
641.511	5.15
641.545	9.15
641.579	5.15
641.614	0.15
641.648	-6.85
641.682	4.15
641.716	-13.85
641.75	12.15
641.784	4.15
641.818	1.15
641.852	2.15
641.886	-10.85
641.919	20.15
641.953	-2.85
641.987	-9.85
642.021	1.15
642.055	-5.85
642.089	17.15
642.123	-19.85
642.157	-11.85
642.191	-15.85
642.225	6.15
642.259	-2.85
642.293	15.15
642.327	10.15
642.361	-6.85
642.395	3.15
642.429	21.15
642.463	16.15
642.497	11.15
642.531	-5.85
642.565	-25.85
642.599	15.15
642.633	-8.85
642.666	1.15
642.7	5.15
642.734	18.15
642.768	-3.85
642.802	0.15
642.836	-3.85
642.87	-9.85
642.904	8.15
642.938	14.15
642.972	10.15
643.005	2.15
643.039	26.15
643.073	4.15
643.107	5.15
643.141	3.15
643.175	2.15
643.209	-6.85
643.243	-5.85
643.276	2.15
643.31	2.15
643.344	-1.85
643.378	10.15
643.412	5.15
643.446	6.15
643.48	-10.85
643.513	9.15
643.547	3.15
643.581	-5.85
643.615	4.15
643.649	15.15
643.683	9.15
643.716	-16.85
643.75	-6.85
643.784	3.15
643.818	5.15
643.852	-6.85
643.886	11.15
643.919	5.15
643.953	-7.85
643.987	3.15
644.021	9.15
644.055	6.15
644.088	-15.85
644.122	-12.85
644.156	6.15
644.19	3.15
644.224	-7.85
644.257	12.15
644.291	17.15
644.325	-1.85
644.359	-7.85
644.392	19.15
644.426	-3.85
644.46	0.15
644.494	-7.85
644.527	-5.85
644.561	-3.85
644.595	11.15
644.629	0.15
644.662	-13.85
644.696	18.15
644.73	5.15
644.764	10.15
644.797	-1.85
644.831	2.15
644.865	2.15
644.899	-4.85
644.932	1.15
644.966	1.15
645	-2.85
645.033	-1.85
645.067	-4.85
645.101	-2.85
645.135	11.15
645.168	-8.85
645.202	-7.85
645.236	-10.85
645.269	10.15
645.303	-14.85
645.337	-12.85
645.37	-16.85
645.404	-25.85
645.438	-8.85
645.471	-11.85
645.505	6.15
645.539	17.15
645.572	-20.85
645.606	-23.85
645.64	0.15
645.673	-9.85
645.707	7.15
645.741	-4.85
645.774	-13.85
645.808	7.15
645.842	3.15
645.875	0.15
645.909	-25.85
645.943	1.15
645.976	0.15
646.01	11.15
646.043	9.15
646.077	7.15
646.111	2.15
646.144	-7.85
646.178	3.15
646.212	-5.85
646.245	3.15
646.279	17.15
646.312	10.15
646.346	16.15
646.38	3.15
646.413	17.15
646.447	8.15
646.48	7.15
646.514	9.15
646.547	-1.85
646.581	-10.85
646.615	2.15
646.648	-6.85
646.682	7.15
646.715	1.15
646.749	7.15
646.782	1.15
646.816	2.15
646.85	9.15
646.883	5.15
646.917	9.15
646.95	10.15
646.984	-8.85
647.017	-21.85
647.051	-3.85
647.084	14.15
647.118	-10.85
647.151	-9.85
647.185	-1.85
647.218	-7.85
647.252	5.15
647.285	-3.85
647.319	-8.85
647.353	-11.85
647.386	13.15
647.42	4.15
647.453	-14.85
647.487	-6.85
647.52	-3.85
647.553	8.15
647.587	5.15
647.62	0.15
647.654	-6.85
647.687	6.15
647.721	-5.85
647.754	15.15
647.788	9.15
647.821	-6.85
647.855	12.15
647.888	1.15
647.922	10.15
647.955	20.15
647.989	1.15
648.022	9.15
648.055	5.15
648.089	-14.85
648.122	26.15
648.156	5.15
648.189	-8.85
648.223	-2.85
648.256	3.15
648.29	6.15
648.323	-9.85
648.356	12.15
648.39	19.15
648.423	-4.85
648.457	-2.85
648.49	6.15
648.523	10.15
648.557	-0.85
648.59	7.15
648.624	-1.85
648.657	14.15
648.69	7.15
648.724	6.15
648.757	5.15
648.791	9.15
648.824	-7.85
648.857	5.15
648.891	-4.85
648.924	2.15
648.957	22.15
648.991	6.15
649.024	3.15
649.057	-17.85
649.091	-13.85
649.124	2.15
649.158	7.15
649.191	10.15
649.224	-9.85
649.258	1.15
649.291	-2.85
649.324	1.15
649.358	8.15
649.391	5.15
649.424	0.15
649.458	0.15
649.491	-12.85
649.524	-12.85
649.557	-13.85
649.591	-12.85
649.624	15.15
649.657	3.15
649.691	-12.85
649.724	-4.85
649.757	4.15
649.791	-12.85
649.824	6.15
649.857	-9.85
649.89	4.15
649.924	-25.85
649.957	4.15
649.99	2.15
650.023	4.15
650.057	-2.85
650.09	0.15
650.123	-7.85
650.157	16.15
650.19	13.15
650.223	6.15
650.256	-13.85
650.29	-2.85
650.323	18.15
650.356	10.15
650.389	11.15
650.423	-1.85
650.456	-0.85
650.489	10.15
650.522	2.15
650.555	3.15
650.589	6.15
650.622	8.15
650.655	24.15
650.688	2.15
650.721	3.15
650.755	26.15
650.788	2.15
650.821	-8.85
650.854	2.15
650.887	6.15
650.921	4.15
650.954	-14.85
650.987	1.15
651.02	4.15
651.053	-9.85
651.087	-9.85
651.12	19.15
651.153	8.15
651.186	-8.85
651.219	-18.85
651.252	0.15
651.286	4.15
651.319	-5.85
651.352	4.15
651.385	2.15
651.418	5.15
651.451	0.15
651.484	-4.85
651.518	-13.85
651.551	21.15
651.584	-1.85
651.617	10.15
651.65	9.15
651.683	5.15
651.716	7.15
651.749	-15.85
651.783	7.15
651.816	-1.85
651.849	-1.85
651.882	-10.85
651.915	0.15
651.948	7.15
651.981	-8.85
652.014	-5.85
652.047	-3.85
652.08	-7.85
652.114	7.15
652.147	-5.85
652.18	1.15
652.213	34.15
652.246	4.15
652.279	-8.85
652.312	-1.85
652.345	-21.85
652.378	5.15
652.411	14.15
652.444	-8.85
652.477	-0.85
652.51	-14.85
652.543	-1.85
652.576	6.15
652.609	0.15
652.642	2.15
652.675	15.15
652.709	0.15
652.742	2.15
652.775	6.15
652.808	2.15
652.841	-3.85
652.874	8.15
652.907	6.15
652.94	-9.85
652.973	-12.85
653.006	-9.85
653.039	1.15
653.072	14.15
653.105	1.15
653.138	-26.85
653.171	-13.85
653.204	-12.85
653.237	1.15
653.27	-3.85
653.303	5.15
653.336	8.15
653.368	5.15
653.401	-6.85
653.434	1.15
653.467	3.15
653.5	-9.85
653.533	1.15
653.566	3.15
653.599	3.15
653.632	8.15
653.665	15.15
653.698	-15.85
653.731	-1.85
653.764	-2.85
653.797	-11.85
653.83	6.15
653.863	16.15
653.896	8.15
653.929	-5.85
653.961	7.15
653.994	0.15
654.027	-21.85
654.06	4.15
654.093	18.15
654.126	3.15
654.159	-15.85
654.192	2.15
654.225	-7.85
654.258	0.15
654.29	1.15
654.323	-0.85
654.356	-7.85
654.389	-2.85
654.422	-16.85
654.455	7.15
654.488	-0.85
654.521	-16.85
654.553	-14.85
654.586	-0.85
654.619	-14.85
654.652	2.15
654.685	-2.85
654.718	3.15
654.751	14.15
654.783	10.15
654.816	22.15
654.849	-6.85
654.882	3.15
654.915	-10.85
654.948	12.15
654.98	-4.85
655.013	-4.85
655.046	4.15
655.079	-1.85
655.112	17.15
655.144	-3.85
655.177	8.15
655.21	32.15
655.243	24.15
655.276	-0.85
655.308	-7.85
655.341	-16.85
655.374	-11.85
655.407	-15.85
655.44	-11.85
655.472	7.15
655.505	12.15
655.538	-8.85
655.571	32.15
655.603	-7.85
655.636	-2.85
655.669	18.15
655.702	6.15
655.734	-4.85
655.767	8.15
655.8	9.15
655.833	13.15
655.865	31.15
655.898	26.15
655.931	29.15
655.964	49.15
655.996	49.15
656.029	66.15
656.062	43.15
656.095	70.15
656.127	45.15
656.16	107.15
656.193	124.15
656.225	163.15
656.258	255.15
656.291	500.15
656.324	1122.15
656.356	3382.15
656.389	7530.15
656.422	5982.15
656.454	2071.15
656.487	666.15
656.52	269.15
656.552	121.15
656.585	70.15
656.618	64.15
656.65	47.15
656.683	25.15
656.716	23.15
656.748	5.15
656.781	1.15
656.814	0.15
656.846	-0.85
656.879	-1.85
656.912	2.15
656.944	-20.85
656.977	1.15
657.01	-7.85
657.042	-2.85
657.075	1.15
657.108	-14.85
657.14	2.15
657.173	23.15
657.205	21.15
657.238	10.15
657.271	22.15
657.303	-28.85
657.336	14.15
657.369	11.15
657.401	-4.85
657.434	6.15
657.466	7.15
657.499	-1.85
657.532	-8.85
657.564	6.15
657.597	0.15
657.629	7.15
657.662	-1.85
657.694	7.15
657.727	-21.85
657.76	6.15
657.792	-13.85
657.825	-14.85
657.857	-7.85
657.89	1.15
657.922	10.15
657.955	-7.85
657.987	4.15
658.02	-0.85
658.053	1.15
658.085	-1.85
658.118	5.15
658.15	15.15
658.183	17.15
658.215	-4.85
658.248	0.15
658.28	10.15
658.313	22.15
658.345	14.15
658.378	9.15
658.41	-0.85
658.443	20.15
658.475	8.15
658.508	-6.85
658.54	-6.85
658.573	-7.85
658.605	-1.85
658.638	-4.85
658.67	-1.85
658.703	2.15
658.735	-7.85
658.768	2.15
658.8	-12.85
658.833	25.15
658.865	-6.85
658.898	-0.85
658.93	-5.85
658.963	-1.85
658.995	-18.85
659.028	-1.85
659.06	10.15
659.092	5.15
659.125	2.15
659.157	-5.85
659.19	-6.85
659.222	-12.85
659.255	-4.85
659.287	-11.85
659.32	-10.85
659.352	-5.85
659.384	-0.85
659.417	-4.85
659.449	2.15
659.482	9.15
659.514	15.15
659.546	14.15
659.579	-1.85
659.611	2.15
659.644	-0.85
659.676	-5.85
659.708	-18.85
659.741	-13.85
659.773	18.15
659.806	10.15
659.838	11.15
659.87	-0.85
659.903	-20.85
659.935	-0.85
659.967	3.15
660	2.15
660.032	-30.85
660.065	0.15
660.097	-5.85
660.129	-8.85
660.162	-14.85
660.194	12.15
660.226	-17.85
660.259	4.15
660.291	6.15
660.323	-2.85
660.356	7.15
660.388	-10.85
660.42	10.15
660.453	10.15
660.485	8.15
660.517	5.15
660.55	23.15
660.582	-2.85
660.614	6.15
660.647	2.15
660.679	-12.85
660.711	7.15
660.743	-21.85
660.776	-1.85
660.808	4.15
660.84	-13.85
660.873	9.15
660.905	-6.85
660.937	-6.85
660.969	-0.85
661.002	-8.85
661.034	12.15
661.066	-9.85
661.099	0.15
661.131	2.15
661.163	1.15
661.195	5.15
661.228	14.15
661.26	-4.85
661.292	7.15
661.324	-1.85
661.357	6.15
661.389	14.15
661.421	2.15
661.453	3.15
661.485	11.15
661.518	-15.85
661.55	-18.85
661.582	-20.85
661.614	2.15
661.647	1.15
661.679	-1.85
661.711	10.15
661.743	0.15
661.775	-11.85
661.808	11.15
661.84	-24.85
661.872	-9.85
661.904	-14.85
661.936	-9.85
661.969	-16.85
662.001	-3.85
662.033	-3.85
662.065	5.15
662.097	16.15
662.129	2.15
662.162	-5.85
662.194	-7.85
662.226	-6.85
662.258	5.15
662.29	2.15
662.322	-9.85
662.355	-17.85
662.387	14.15
662.419	8.15
662.451	14.15
662.483	4.15
662.515	-5.85
662.547	18.15
662.58	-0.85
662.612	-6.85
662.644	0.15
662.676	2.15
662.708	22.15
662.74	-11.85
662.772	7.15
662.804	8.15
662.836	8.15
662.869	3.15
662.901	15.15
662.933	-8.85
662.965	5.15
662.997	-9.85
663.029	0.15
663.061	-11.85
663.093	-5.85
663.125	-2.85
663.157	18.15
663.189	-6.85
663.221	-0.85
663.254	5.15
663.286	10.15
663.318	7.15
663.35	14.15
663.382	9.15
663.414	12.15
663.446	6.15
663.478	-11.85
663.51	16.15
663.542	-12.85
663.574	-4.85
663.606	16.15
663.638	-22.85
663.67	-18.85
663.702	-1.85
663.734	-7.85
663.766	4.15
663.798	-12.85
663.83	-1.85
663.862	5.15
663.894	7.15
663.926	1.15
663.958	20.15
663.99	-5.85
664.022	-15.85
664.054	-2.85
664.086	3.15
664.118	-11.85
664.15	-4.85
664.182	-0.85
664.214	-1.85
664.246	7.15
664.278	5.15
664.31	7.15
664.342	-5.85
664.374	-3.85
664.406	4.15
664.438	-0.85
664.47	15.15
664.502	-8.85
664.534	4.15
664.566	0.15
664.598	18.15
664.63	-2.85
664.662	19.15
664.693	-0.85
664.725	-16.85
664.757	5.15
664.789	-15.85
664.821	-12.85
664.853	8.15
664.885	16.15
664.917	5.15
664.949	20.15
664.981	9.15
665.013	2.15
665.045	-7.85
665.076	4.15
665.108	10.15
665.14	2.15
665.172	-0.85
665.204	-1.85
665.236	-14.85
665.268	17.15
665.3	-2.85
665.331	-12.85
665.363	-10.85
665.395	-9.85
665.427	-2.85
665.459	6.15
665.491	-15.85
665.523	11.15
665.555	6.15
665.586	1.15
665.618	-6.85
665.65	0.15
665.682	-0.85
665.714	-5.85
665.746	-3.85
665.777	2.15
665.809	-19.85
665.841	-4.85
665.873	-8.85
665.905	-8.85
665.937	2.15
665.968	4.15
666	-2.85
666.032	7.15
666.064	-4.85
666.096	-0.85
666.127	9.15
666.159	21.15
666.191	7.15
666.223	18.15
666.255	6.15
666.286	11.15
666.318	3.15
666.35	8.15
666.382	6.15
666.413	-25.85
666.445	-19.85
666.477	-16.85
666.509	-3.85
666.54	-4.85
666.572	-10.85
666.604	-3.85
666.636	-1.85
666.667	5.15
666.699	10.15
666.731	-3.85
666.763	-8.85
666.794	2.15
666.826	8.15
666.858	-9.85
666.89	12.15
666.921	-1.85
666.953	3.15
666.985	8.15
667.017	16.15
667.048	0.15
667.08	-6.85
667.112	-9.85
667.143	-6.85
667.175	5.15
667.207	5.15
667.238	9.15
667.27	5.15
667.302	6.15
667.334	-0.85
667.365	5.15
667.397	11.15
667.429	-13.85
667.46	15.15
667.492	25.15
667.524	-3.85
667.555	-12.85
667.587	3.15
667.619	-3.85
667.65	0.15
667.682	6.15
667.714	-3.85
667.745	11.15
667.777	9.15
667.808	17.15
667.84	8.15
667.872	-8.85
667.903	24.15
667.935	-4.85
667.967	4.15
667.998	-1.85
668.03	-8.85
668.061	9.15
668.093	11.15
668.125	5.15
668.156	0.15
668.188	-3.85
668.22	-2.85
668.251	2.15
668.283	-0.85
668.314	-6.85
668.346	-9.85
668.377	16.15
668.409	-2.85
668.441	-5.85
668.472	-2.85
668.504	12.15
668.535	6.15
668.567	9.15
668.599	18.15
668.63	3.15
668.662	-12.85
668.693	7.15
668.725	4.15
668.756	21.15
668.788	-4.85
668.819	-4.85
668.851	10.15
668.882	12.15
668.914	-3.85
668.946	-12.85
668.977	-4.85
669.009	-6.85
669.04	-13.85
669.072	10.15
669.103	-2.85
669.135	-11.85
669.166	2.15
669.198	-13.85
669.229	16.15
669.261	-5.85
669.292	-8.85
669.324	7.15
669.355	15.15
669.387	-15.85
669.418	10.15
669.45	-11.85
669.481	-5.85
669.513	-2.85
669.544	-3.85
669.576	0.15
669.607	13.15
669.639	23.15
669.67	-7.85
669.701	4.15
669.733	1.15
669.764	-5.85
669.796	-10.85
669.827	-23.85
669.859	-2.85
669.89	9.15
669.922	26.15
669.953	12.15
669.985	6.15
670.016	0.15
670.047	0.15
670.079	3.15
670.11	10.15
670.142	-2.85
670.173	-8.85
670.204	-15.85
670.236	0.15
670.267	-5.85
670.299	-13.85
670.33	4.15
670.362	2.15
670.393	-1.85
670.424	14.15
670.456	-1.85
670.487	-3.85
670.518	-11.85
670.55	6.15
670.581	2.15
670.613	1.15
670.644	-6.85
670.675	-0.85
670.707	-29.85
670.738	4.15
670.769	-2.85
670.801	-17.85
670.832	5.15
670.864	-8.85
670.895	-11.85
670.926	-2.85
670.958	-7.85
670.989	-6.85
671.02	-4.85
671.052	5.15
671.083	5.15
671.114	6.15
671.146	12.15
671.177	-3.85
671.208	-16.85
671.24	-14.85
671.271	5.15
671.302	-4.85
671.333	-11.85
671.365	-6.85
671.396	-7.85
671.427	7.15
671.459	-4.85
671.49	17.15
671.521	-2.85
671.553	0.15
671.584	25.15
671.615	-10.85
671.646	-0.85
671.678	5.15
671.709	-25.85
671.74	-26.85
671.771	-13.85
671.803	-14.85
671.834	-0.85
671.865	-17.85
671.896	9.15
671.928	-3.85
671.959	1.15
671.99	-1.85
672.021	5.15
672.053	-14.85
672.084	10.15
672.115	4.15
672.146	-1.85
672.178	-16.85
672.209	-8.85
672.24	9.15
672.271	27.15
672.303	11.15
672.334	-11.85
672.365	-2.85
672.396	-4.85
672.427	8.15
672.459	22.15
672.49	15.15
672.521	6.15
672.552	9.15
672.583	-0.85
672.615	-4.85
672.646	2.15
672.677	-8.85
672.708	3.15
672.739	1.15
672.77	12.15
672.802	-6.85
672.833	-0.85
672.864	-0.85
672.895	0.15
672.926	-5.85
672.957	-7.85
672.989	-3.85
673.02	12.15
673.051	-0.85
673.082	7.15
673.113	-2.85
673.144	2.15
673.175	1.15
673.206	-1.85
673.238	-0.85
673.269	-1.85
673.3	-1.85
673.331	3.15
673.362	4.15
673.393	-4.85
673.424	7.15
673.455	17.15
673.487	7.15
673.518	16.15
673.549	4.15
673.58	14.15
673.611	4.15
673.642	2.15
673.673	-10.85
673.704	5.15
673.735	-0.85
673.766	-10.85
673.797	-5.85
673.828	-4.85
673.86	-14.85
673.891	-5.85
673.922	-31.85
673.953	-13.85
673.984	4.15
674.015	0.15
674.046	0.15
674.077	2.15
674.108	-6.85
674.139	2.15
674.17	-4.85
674.201	3.15
674.232	-6.85
674.263	-2.85
674.294	3.15
674.325	-10.85
674.356	8.15
674.387	1.15
674.418	-6.85
674.449	3.15
674.48	-4.85
674.511	0.15
674.542	4.15
674.573	-11.85
674.604	15.15
674.635	5.15
674.666	10.15
674.697	-3.85
674.728	4.15
674.759	19.15
674.79	-3.85
674.821	-0.85
674.852	0.15
674.883	-12.85
674.914	-4.85
674.945	-6.85
674.976	-3.85
675.007	-11.85
675.038	-22.85
675.069	-20.85
675.1	-9.85
675.131	-0.85
675.162	-7.85
675.193	2.15
675.224	-4.85
675.254	13.15
675.285	6.15
675.316	16.15
675.347	-10.85
675.378	-14.85
675.409	-7.85
675.44	1.15
675.471	-1.85
675.502	-9.85
675.533	1.15
675.564	5.15
675.595	-7.85
675.625	3.15
675.656	0.15
675.687	4.15
675.718	-17.85
675.749	16.15
675.78	-4.85
675.811	-6.85
675.842	6.15
675.873	2.15
675.903	-11.85
675.934	10.15
675.965	-7.85
675.996	-11.85
676.027	9.15
676.058	-5.85
676.089	-16.85
676.119	-9.85
676.15	-4.85
676.181	-14.85
676.212	0.15
676.243	0.15
676.274	-2.85
676.304	14.15
676.335	-23.85
676.366	7.15
676.397	-6.85
676.428	-10.85
676.459	-1.85
676.489	17.15
676.52	0.15
676.551	-13.85
676.582	-12.85
676.613	-4.85
676.643	-7.85
676.674	11.15
676.705	0.15
676.736	-2.85
676.767	20.15
676.797	3.15
676.828	9.15
676.859	-5.85
676.89	-15.85
676.92	-0.85
676.951	1.15
676.982	9.15
677.013	3.15
677.044	30.15
677.074	11.15
677.105	-6.85
677.136	-3.85
677.167	-1.85
677.197	4.15
677.228	6.15
677.259	-14.85
677.289	0.15
677.32	-20.85
677.351	2.15
677.382	-6.85
677.412	-4.85
677.443	-5.85
677.474	-5.85
677.505	-7.85
677.535	-5.85
677.566	2.15
677.597	-17.85
677.627	-12.85
677.658	7.15
677.689	-16.85
677.72	-0.85
677.75	-24.85
677.781	-3.85
677.812	-4.85
677.842	-0.85
677.873	8.15
677.904	-4.85
677.934	-12.85
677.965	-21.85
677.996	-33.85
678.026	-3.85
678.057	4.15
678.088	-4.85
678.118	5.15
678.149	-4.85
678.18	-14.85
678.21	-1.85
678.241	-4.85
678.272	-4.85
678.302	-1.85
678.333	-5.85
678.363	6.15
678.394	-1.85
678.425	5.15
678.455	-10.85
678.486	10.15
678.517	2.15
678.547	2.15
678.578	5.15
678.608	-21.85
678.639	-8.85
678.67	19.15
678.7	-4.85
678.731	-7.85
678.761	0.15
678.792	20.15
678.823	-2.85
678.853	-6.85
678.884	-23.85
678.914	6.15
678.945	-3.85
678.975	-14.85
679.006	-2.85
679.037	-16.85
679.067	6.15
679.098	-2.85
679.128	-14.85
679.159	-7.85
679.189	16.15
679.22	-11.85
679.25	-2.85
679.281	-0.85
679.312	0.15
679.342	-0.85
679.373	22.15
679.403	-6.85
679.434	12.15
679.464	5.15
679.495	7.15
679.525	-8.85
679.556	-10.85
679.586	-10.85
679.617	6.15
679.647	-7.85
679.678	-14.85
679.708	-9.85
679.739	-4.85
679.769	-0.85
679.8	-16.85
679.83	0.15
679.861	-1.85
679.891	-24.85
679.922	-26.85
679.952	3.15
679.983	5.15
680.013	4.15
680.044	7.15
680.074	4.15
680.105	1.15
680.135	2.15
680.165	-3.85
680.196	12.15
680.226	15.15
680.257	21.15
680.287	10.15
680.318	-17.85
680.348	-22.85
680.379	6.15
680.409	2.15
680.439	-17.85
680.47	-12.85
680.5	-8.85
680.531	4.15
680.561	10.15
680.592	9.15
680.622	3.15
680.652	-11.85
680.683	1.15
680.713	-8.85
680.744	-13.85
680.774	-9.85
680.804	3.15
680.835	-9.85
680.865	-10.85
680.896	11.15
680.926	6.15
680.956	0.15
680.987	4.15
681.017	-10.85
681.047	-9.85
681.078	-20.85
681.108	-6.85
681.139	-8.85
681.169	-10.85
681.199	2.15
681.23	1.15
681.26	-6.85
681.29	16.15
681.321	6.15
681.351	7.15
681.381	-15.85
681.412	-0.85
681.442	-4.85
681.472	6.15
681.503	13.15
681.533	6.15
681.563	-9.85
681.594	-5.85
681.624	-0.85
681.654	-0.85
681.685	1.15
681.715	-2.85
681.745	-11.85
681.775	-21.85
681.806	-12.85
681.836	2.15
681.866	-7.85
681.897	8.15
681.927	0.15
681.957	-20.85
681.987	6.15
682.018	-16.85
682.048	-0.85
682.078	0.15
682.109	2.15
682.139	8.15
682.169	8.15
682.199	2.15
682.23	-1.85
682.26	6.15
682.29	2.15
682.32	3.15
682.351	12.15
682.381	-6.85
682.411	-10.85
682.441	3.15
