Data from HighRes_H2_15_09_11_07_2024_HR4C61891__107__15-11-07-101.txt Node

Date: Thu Nov 07 15:11:07 EST 2024
User: crc00042
Spectrometer: HR4C6189
Trigger mode: 4
Integration Time (sec): 1.000000E-1
Scans to average: 1
Electric dark correction enabled: true
Nonlinearity correction enabled: false
Boxcar width: 0
XAxis mode: Wavelengths
Number of Pixels in Spectrum: 3648
>>>>>Begin Spectral Data<<<<<
639.567	-58.69
639.602	-58.69
639.636	-58.69
639.67	-50.69
639.704	-21.69
639.738	0.31
639.773	9.31
639.807	-31.69
639.841	10.31
639.875	10.31
639.909	5.31
639.943	-7.69
639.978	4.31
640.012	6.31
640.046	6.31
640.08	7.31
640.114	-8.69
640.148	-11.69
640.182	-1.69
640.217	-5.69
640.251	12.31
640.285	12.31
640.319	-9.69
640.353	1.31
640.387	4.31
640.421	4.31
640.455	-14.69
640.49	-10.69
640.524	-3.69
640.558	3.31
640.592	1.31
640.626	2.31
640.66	7.31
640.694	-7.69
640.728	6.31
640.762	9.31
640.796	18.31
640.83	22.31
640.865	-1.69
640.899	-2.69
640.933	-2.69
640.967	-1.69
641.001	15.31
641.035	0.31
641.069	-10.69
641.103	-8.69
641.137	-4.69
641.171	-15.69
641.205	-6.69
641.239	-13.69
641.273	10.31
641.307	8.31
641.341	7.31
641.375	-4.69
641.409	-9.69
641.443	-1.69
641.477	9.31
641.511	11.31
641.545	7.31
641.579	-17.69
641.614	4.31
641.648	15.31
641.682	0.31
641.716	-6.69
641.75	5.31
641.784	-10.69
641.818	-5.69
641.852	-17.69
641.886	-7.69
641.919	25.31
641.953	2.31
641.987	-2.69
642.021	11.31
642.055	5.31
642.089	-7.69
642.123	-22.69
642.157	-2.69
642.191	-3.69
642.225	4.31
642.259	-2.69
642.293	33.31
642.327	23.31
642.361	12.31
642.395	3.31
642.429	3.31
642.463	3.31
642.497	6.31
642.531	-10.69
642.565	0.31
642.599	10.31
642.633	-5.69
642.666	5.31
642.7	12.31
642.734	9.31
642.768	-0.69
642.802	1.31
642.836	11.31
642.87	5.31
642.904	9.31
642.938	17.31
642.972	6.31
643.005	10.31
643.039	18.31
643.073	3.31
643.107	8.31
643.141	-0.69
643.175	4.31
643.209	-13.69
643.243	-3.69
643.276	-3.69
643.31	-0.69
643.344	-7.69
643.378	-5.69
643.412	6.31
643.446	22.31
643.48	-2.69
643.513	5.31
643.547	3.31
643.581	0.31
643.615	18.31
643.649	8.31
643.683	2.31
643.716	-3.69
643.75	2.31
643.784	-0.69
643.818	0.31
643.852	4.31
643.886	3.31
643.919	3.31
643.953	3.31
643.987	2.31
644.021	1.31
644.055	14.31
644.088	-2.69
644.122	-6.69
644.156	-10.69
644.19	0.31
644.224	-1.69
644.257	9.31
644.291	12.31
644.325	-4.69
644.359	-15.69
644.392	10.31
644.426	-7.69
644.46	4.31
644.494	0.31
644.527	-9.69
644.561	4.31
644.595	-2.69
644.629	-2.69
644.662	0.31
644.696	22.31
644.73	4.31
644.764	6.31
644.797	-2.69
644.831	5.31
644.865	14.31
644.899	-6.69
644.932	20.31
644.966	-8.69
645	4.31
645.033	19.31
645.067	-8.69
645.101	-6.69
645.135	-9.69
645.168	-8.69
645.202	-10.69
645.236	4.31
645.269	-0.69
645.303	-10.69
645.337	-14.69
645.37	-10.69
645.404	-9.69
645.438	1.31
645.471	0.31
645.505	5.31
645.539	14.31
645.572	-9.69
645.606	-4.69
645.64	10.31
645.673	10.31
645.707	15.31
645.741	-1.69
645.774	-7.69
645.808	2.31
645.842	-3.69
645.875	14.31
645.909	-3.69
645.943	-8.69
645.976	5.31
646.01	-1.69
646.043	10.31
646.077	3.31
646.111	13.31
646.144	4.31
646.178	16.31
646.212	-16.69
646.245	-8.69
646.279	-15.69
646.312	-18.69
646.346	1.31
646.38	11.31
646.413	5.31
646.447	8.31
646.48	-6.69
646.514	0.31
646.547	-8.69
646.581	-3.69
646.615	-5.69
646.648	-1.69
646.682	6.31
646.715	11.31
646.749	18.31
646.782	-4.69
646.816	-2.69
646.85	6.31
646.883	-3.69
646.917	11.31
646.95	4.31
646.984	-0.69
647.017	2.31
647.051	1.31
647.084	4.31
647.118	-7.69
647.151	10.31
647.185	10.31
647.218	-12.69
647.252	4.31
647.285	6.31
647.319	3.31
647.353	0.31
647.386	13.31
647.42	2.31
647.453	-1.69
647.487	-4.69
647.52	3.31
647.553	1.31
647.587	13.31
647.62	1.31
647.654	5.31
647.687	-1.69
647.721	16.31
647.754	17.31
647.788	-8.69
647.821	-2.69
647.855	6.31
647.888	10.31
647.922	11.31
647.955	-0.69
647.989	0.31
648.022	17.31
648.055	10.31
648.089	-14.69
648.122	27.31
648.156	-8.69
648.189	-2.69
648.223	5.31
648.256	24.31
648.29	13.31
648.323	3.31
648.356	25.31
648.39	3.31
648.423	6.31
648.457	0.31
648.49	18.31
648.523	10.31
648.557	2.31
648.59	-17.69
648.624	1.31
648.657	-1.69
648.69	10.31
648.724	8.31
648.757	15.31
648.791	25.31
648.824	22.31
648.857	21.31
648.891	-14.69
648.924	-5.69
648.957	16.31
648.991	-10.69
649.024	8.31
649.057	0.31
649.091	-8.69
649.124	2.31
649.158	12.31
649.191	31.31
649.224	6.31
649.258	8.31
649.291	11.31
649.324	6.31
649.358	6.31
649.391	7.31
649.424	-0.69
649.458	-1.69
649.491	-4.69
649.524	-10.69
649.557	-4.69
649.591	-14.69
649.624	17.31
649.657	1.31
649.691	-1.69
649.724	-0.69
649.757	-1.69
649.791	-4.69
649.824	2.31
649.857	22.31
649.89	2.31
649.924	-7.69
649.957	-1.69
649.99	-18.69
650.023	-9.69
650.057	-1.69
650.09	-8.69
650.123	2.31
650.157	8.31
650.19	20.31
650.223	-9.69
650.256	-11.69
650.29	-3.69
650.323	-1.69
650.356	9.31
650.389	-2.69
650.423	1.31
650.456	15.31
650.489	-4.69
650.522	-3.69
650.555	16.31
650.589	17.31
650.622	7.31
650.655	18.31
650.688	-5.69
650.721	-4.69
650.755	3.31
650.788	2.31
650.821	7.31
650.854	13.31
650.887	-5.69
650.921	-0.69
650.954	-2.69
650.987	3.31
651.02	-1.69
651.053	2.31
651.087	-4.69
651.12	10.31
651.153	15.31
651.186	-3.69
651.219	-20.69
651.252	17.31
651.286	-0.69
651.319	2.31
651.352	-0.69
651.385	2.31
651.418	3.31
651.451	21.31
651.484	1.31
651.518	10.31
651.551	32.31
651.584	2.31
651.617	4.31
651.65	17.31
651.683	23.31
651.716	-2.69
651.749	-22.69
651.783	4.31
651.816	3.31
651.849	-4.69
651.882	1.31
651.915	5.31
651.948	11.31
651.981	-1.69
652.014	-27.69
652.047	-3.69
652.08	-10.69
652.114	-3.69
652.147	-7.69
652.18	2.31
652.213	18.31
652.246	-6.69
652.279	-6.69
652.312	-4.69
652.345	-7.69
652.378	9.31
652.411	8.31
652.444	6.31
652.477	-8.69
652.51	5.31
652.543	-18.69
652.576	14.31
652.609	9.31
652.642	-3.69
652.675	10.31
652.709	-7.69
652.742	2.31
652.775	12.31
652.808	7.31
652.841	4.31
652.874	7.31
652.907	1.31
652.94	8.31
652.973	-18.69
653.006	-24.69
653.039	13.31
653.072	2.31
653.105	1.31
653.138	-12.69
653.171	-13.69
653.204	0.31
653.237	9.31
653.27	-7.69
653.303	12.31
653.336	1.31
653.368	-3.69
653.401	-7.69
653.434	-11.69
653.467	6.31
653.5	-18.69
653.533	2.31
653.566	-14.69
653.599	-4.69
653.632	10.31
653.665	1.31
653.698	-21.69
653.731	-6.69
653.764	17.31
653.797	-6.69
653.83	11.31
653.863	2.31
653.896	-0.69
653.929	10.31
653.961	7.31
653.994	-1.69
654.027	-6.69
654.06	14.31
654.093	0.31
654.126	18.31
654.159	10.31
654.192	3.31
654.225	-5.69
654.258	-28.69
654.29	-3.69
654.323	1.31
654.356	-27.69
654.389	6.31
654.422	-5.69
654.455	-10.69
654.488	-1.69
654.521	-4.69
654.553	-7.69
654.586	17.31
654.619	8.31
654.652	1.31
654.685	15.31
654.718	21.31
654.751	12.31
654.783	-3.69
654.816	12.31
654.849	14.31
654.882	-14.69
654.915	-11.69
654.948	8.31
654.98	-7.69
655.013	6.31
655.046	-0.69
655.079	-16.69
655.112	3.31
655.144	-8.69
655.177	21.31
655.21	7.31
655.243	17.31
655.276	12.31
655.308	-8.69
655.341	-16.69
655.374	9.31
655.407	-2.69
655.44	-6.69
655.472	22.31
655.505	4.31
655.538	7.31
655.571	-1.69
655.603	3.31
655.636	7.31
655.669	10.31
655.702	3.31
655.734	2.31
655.767	17.31
655.8	17.31
655.833	27.31
655.865	29.31
655.898	20.31
655.931	20.31
655.964	43.31
655.996	35.31
656.029	71.31
656.062	48.31
656.095	53.31
656.127	52.31
656.16	93.31
656.193	109.31
656.225	167.31
656.258	289.31
656.291	501.31
656.324	1105.31
656.356	3361.31
656.389	7477.31
656.422	5996.31
656.454	2034.31
656.487	671.31
656.52	241.31
656.552	123.31
656.585	74.31
656.618	50.31
656.65	37.31
656.683	16.31
656.716	11.31
656.748	2.31
656.781	12.31
656.814	-7.69
656.846	-10.69
656.879	-10.69
656.912	1.31
656.944	-2.69
656.977	-13.69
657.01	-7.69
657.042	4.31
657.075	15.31
657.108	-9.69
657.14	4.31
657.173	10.31
657.205	15.31
657.238	11.31
657.271	7.31
657.303	3.31
657.336	5.31
657.369	-13.69
657.401	-3.69
657.434	-15.69
657.466	-2.69
657.499	-0.69
657.532	1.31
657.564	11.31
657.597	10.31
657.629	7.31
657.662	6.31
657.694	6.31
657.727	-8.69
657.76	6.31
657.792	-3.69
657.825	-2.69
657.857	0.31
657.89	-4.69
657.922	4.31
657.955	0.31
657.987	-8.69
658.02	17.31
658.053	22.31
658.085	-9.69
658.118	-4.69
658.15	13.31
658.183	26.31
658.215	-8.69
658.248	-14.69
658.28	-10.69
658.313	15.31
658.345	9.31
658.378	-1.69
658.41	-7.69
658.443	14.31
658.475	0.31
658.508	3.31
658.54	5.31
658.573	0.31
658.605	0.31
658.638	-4.69
658.67	-10.69
658.703	1.31
658.735	8.31
658.768	9.31
658.8	-8.69
658.833	7.31
658.865	-2.69
658.898	-16.69
658.93	13.31
658.963	-7.69
658.995	-1.69
659.028	19.31
659.06	-11.69
659.092	-4.69
659.125	-4.69
659.157	0.31
659.19	-8.69
659.222	-6.69
659.255	-1.69
659.287	3.31
659.32	-14.69
659.352	5.31
659.384	8.31
659.417	2.31
659.449	5.31
659.482	4.31
659.514	7.31
659.546	-0.69
659.579	-3.69
659.611	-5.69
659.644	-17.69
659.676	-25.69
659.708	-14.69
659.741	-25.69
659.773	18.31
659.806	6.31
659.838	-1.69
659.87	-3.69
659.903	-17.69
659.935	5.31
659.967	5.31
660	11.31
660.032	-22.69
660.065	2.31
660.097	11.31
660.129	-0.69
660.162	-9.69
660.194	0.31
660.226	8.31
660.259	5.31
660.291	-24.69
660.323	4.31
660.356	9.31
660.388	5.31
660.42	-3.69
660.453	2.31
660.485	19.31
660.517	-2.69
660.55	9.31
660.582	11.31
660.614	9.31
660.647	-5.69
660.679	-15.69
660.711	0.31
660.743	-24.69
660.776	-8.69
660.808	3.31
660.84	-6.69
660.873	-5.69
660.905	-4.69
660.937	-1.69
660.969	1.31
661.002	3.31
661.034	14.31
661.066	6.31
661.099	20.31
661.131	4.31
661.163	11.31
661.195	7.31
661.228	19.31
661.26	-11.69
661.292	-1.69
661.324	16.31
661.357	10.31
661.389	-2.69
661.421	7.31
661.453	-3.69
661.485	7.31
661.518	9.31
661.55	-6.69
661.582	-2.69
661.614	-6.69
661.647	19.31
661.679	0.31
661.711	10.31
661.743	-25.69
661.775	2.31
661.808	4.31
661.84	-15.69
661.872	-2.69
661.904	-3.69
661.936	3.31
661.969	-1.69
662.001	-2.69
662.033	17.31
662.065	-7.69
662.097	16.31
662.129	12.31
662.162	6.31
662.194	2.31
662.226	2.31
662.258	12.31
662.29	-15.69
662.322	-8.69
662.355	-12.69
662.387	31.31
662.419	17.31
662.451	2.31
662.483	13.31
662.515	-10.69
662.547	-17.69
662.58	-13.69
662.612	5.31
662.644	0.31
662.676	9.31
662.708	14.31
662.74	-8.69
662.772	-8.69
662.804	-0.69
662.836	9.31
662.869	-10.69
662.901	1.31
662.933	-2.69
662.965	4.31
662.997	3.31
663.029	-17.69
663.061	2.31
663.093	0.31
663.125	3.31
663.157	7.31
663.189	2.31
663.221	4.31
663.254	-6.69
663.286	-10.69
663.318	0.31
663.35	-12.69
663.382	4.31
663.414	-6.69
663.446	9.31
663.478	-3.69
663.51	17.31
663.542	10.31
663.574	6.31
663.606	10.31
663.638	-10.69
663.67	-8.69
663.702	-11.69
663.734	-3.69
663.766	5.31
663.798	-10.69
663.83	-4.69
663.862	6.31
663.894	22.31
663.926	-1.69
663.958	11.31
663.99	7.31
664.022	11.31
664.054	17.31
664.086	-17.69
664.118	-18.69
664.15	-13.69
664.182	-8.69
664.214	-5.69
664.246	16.31
664.278	10.31
664.31	6.31
664.342	6.31
664.374	0.31
664.406	7.31
664.438	2.31
664.47	8.31
664.502	-8.69
664.534	-4.69
664.566	-15.69
664.598	8.31
664.63	3.31
664.662	1.31
664.693	3.31
664.725	-15.69
664.757	3.31
664.789	-7.69
664.821	-4.69
664.853	-10.69
664.885	2.31
664.917	-3.69
664.949	13.31
664.981	20.31
665.013	-10.69
665.045	-17.69
665.076	-6.69
665.108	-9.69
665.14	20.31
665.172	-0.69
665.204	6.31
665.236	-5.69
665.268	6.31
665.3	-5.69
665.331	-15.69
665.363	-4.69
665.395	-11.69
665.427	-23.69
665.459	-6.69
665.491	6.31
665.523	2.31
665.555	-6.69
665.586	0.31
665.618	1.31
665.65	-9.69
665.682	2.31
665.714	6.31
665.746	-2.69
665.777	-5.69
665.809	3.31
665.841	4.31
665.873	-7.69
665.905	-8.69
665.937	-0.69
665.968	-0.69
666	3.31
666.032	10.31
666.064	2.31
666.096	0.31
666.127	18.31
666.159	2.31
666.191	4.31
666.223	6.31
666.255	-1.69
666.286	1.31
666.318	0.31
666.35	16.31
666.382	0.31
666.413	-6.69
666.445	-3.69
666.477	-3.69
666.509	-1.69
666.54	1.31
666.572	-0.69
666.604	-1.69
666.636	10.31
666.667	27.31
666.699	25.31
666.731	10.31
666.763	0.31
666.794	20.31
666.826	-3.69
666.858	-17.69
666.89	12.31
666.921	14.31
666.953	9.31
666.985	14.31
667.017	13.31
667.048	8.31
667.08	16.31
667.112	-0.69
667.143	8.31
667.175	9.31
667.207	4.31
667.238	17.31
667.27	12.31
667.302	5.31
667.334	14.31
667.365	24.31
667.397	4.31
667.429	-2.69
667.46	-5.69
667.492	3.31
667.524	-16.69
667.555	-15.69
667.587	-1.69
667.619	7.31
667.65	-6.69
667.682	6.31
667.714	2.31
667.745	9.31
667.777	0.31
667.808	-0.69
667.84	0.31
667.872	8.31
667.903	26.31
667.935	-3.69
667.967	7.31
667.998	-2.69
668.03	1.31
668.061	-1.69
668.093	1.31
668.125	10.31
668.156	-5.69
668.188	-21.69
668.22	-16.69
668.251	-5.69
668.283	16.31
668.314	23.31
668.346	2.31
668.377	-0.69
668.409	-5.69
668.441	16.31
668.472	-5.69
668.504	7.31
668.535	17.31
668.567	14.31
668.599	3.31
668.63	-16.69
668.662	1.31
668.693	19.31
668.725	12.31
668.756	26.31
668.788	-0.69
668.819	-4.69
668.851	5.31
668.882	18.31
668.914	3.31
668.946	0.31
668.977	-12.69
669.009	-14.69
669.04	-20.69
669.072	0.31
669.103	1.31
669.135	2.31
669.166	-2.69
669.198	2.31
669.229	-2.69
669.261	-2.69
669.292	-7.69
669.324	-0.69
669.355	9.31
669.387	-3.69
669.418	3.31
669.45	-23.69
669.481	0.31
669.513	6.31
669.544	0.31
669.576	-7.69
669.607	3.31
669.639	13.31
669.67	-24.69
669.701	7.31
669.733	6.31
669.764	3.31
669.796	-11.69
669.827	-13.69
669.859	-11.69
669.89	-5.69
669.922	18.31
669.953	6.31
669.985	-1.69
670.016	4.31
670.047	14.31
670.079	9.31
670.11	8.31
670.142	4.31
670.173	7.31
670.204	-1.69
670.236	11.31
670.267	-0.69
670.299	-0.69
670.33	-9.69
670.362	8.31
670.393	7.31
670.424	-3.69
670.456	-10.69
670.487	5.31
670.518	-1.69
670.55	0.31
670.581	2.31
670.613	0.31
670.644	-2.69
670.675	-7.69
670.707	-11.69
670.738	6.31
670.769	-0.69
670.801	-17.69
670.832	0.31
670.864	-17.69
670.895	7.31
670.926	9.31
670.958	-8.69
670.989	-3.69
671.02	-7.69
671.052	5.31
671.083	1.31
671.114	-15.69
671.146	6.31
671.177	4.31
671.208	1.31
671.24	-9.69
671.271	-13.69
671.302	-10.69
671.333	-10.69
671.365	-11.69
671.396	-5.69
671.427	4.31
671.459	7.31
671.49	-0.69
671.521	-7.69
671.553	-6.69
671.584	1.31
671.615	-9.69
671.646	1.31
671.678	8.31
671.709	-3.69
671.74	0.31
671.771	0.31
671.803	-7.69
671.834	-1.69
671.865	-10.69
671.896	-2.69
671.928	-9.69
671.959	-8.69
671.99	-6.69
672.021	6.31
672.053	0.31
672.084	6.31
672.115	1.31
672.146	-7.69
672.178	-15.69
672.209	-5.69
672.24	6.31
672.271	12.31
672.303	2.31
672.334	2.31
672.365	1.31
672.396	-1.69
672.427	9.31
672.459	3.31
672.49	16.31
672.521	7.31
672.552	2.31
672.583	-6.69
672.615	-6.69
672.646	5.31
672.677	2.31
672.708	-4.69
672.739	-6.69
672.77	1.31
672.802	3.31
672.833	-22.69
672.864	-5.69
672.895	-1.69
672.926	-3.69
672.957	-14.69
672.989	-14.69
673.02	2.31
673.051	-13.69
673.082	16.31
673.113	-3.69
673.144	6.31
673.175	1.31
673.206	-20.69
673.238	-4.69
673.269	9.31
673.3	3.31
673.331	-1.69
673.362	13.31
673.393	0.31
673.424	10.31
673.455	17.31
673.487	4.31
673.518	0.31
673.549	-3.69
673.58	1.31
673.611	-2.69
673.642	-0.69
673.673	-8.69
673.704	-4.69
673.735	-14.69
673.766	-3.69
673.797	-3.69
673.828	10.31
673.86	-0.69
673.891	3.31
673.922	-14.69
673.953	-24.69
673.984	-1.69
674.015	1.31
674.046	18.31
674.077	-7.69
674.108	-19.69
674.139	-7.69
674.17	-26.69
674.201	-10.69
674.232	19.31
674.263	-11.69
674.294	-8.69
674.325	-28.69
674.356	1.31
674.387	-2.69
674.418	-11.69
674.449	-7.69
674.48	-14.69
674.511	-12.69
674.542	-1.69
674.573	-24.69
674.604	2.31
674.635	-0.69
674.666	5.31
674.697	8.31
674.728	-5.69
674.759	2.31
674.79	-2.69
674.821	-16.69
674.852	-10.69
674.883	-8.69
674.914	2.31
674.945	-4.69
674.976	15.31
675.007	-17.69
675.038	-28.69
675.069	-13.69
675.1	-16.69
675.131	-14.69
675.162	-9.69
675.193	-9.69
675.224	-1.69
675.254	2.31
675.285	-7.69
675.316	2.31
675.347	-3.69
675.378	-2.69
675.409	1.31
675.44	0.31
675.471	-1.69
675.502	6.31
675.533	-5.69
675.564	-16.69
675.595	0.31
675.625	31.31
675.656	12.31
675.687	4.31
675.718	-12.69
675.749	4.31
675.78	-6.69
675.811	1.31
675.842	7.31
675.873	1.31
675.903	-4.69
675.934	-15.69
675.965	-17.69
675.996	-16.69
676.027	-0.69
676.058	-4.69
676.089	-15.69
676.119	-12.69
676.15	-9.69
676.181	8.31
676.212	0.31
676.243	5.31
676.274	-4.69
676.304	13.31
676.335	-15.69
676.366	0.31
676.397	-9.69
676.428	2.31
676.459	7.31
676.489	1.31
676.52	13.31
676.551	-3.69
676.582	-20.69
676.613	12.31
676.643	-14.69
676.674	-2.69
676.705	-5.69
676.736	4.31
676.767	22.31
676.797	11.31
676.828	-4.69
676.859	1.31
676.89	-1.69
676.92	-8.69
676.951	9.31
676.982	23.31
677.013	-15.69
677.044	2.31
677.074	-11.69
677.105	-21.69
677.136	7.31
677.167	-6.69
677.197	-12.69
677.228	-12.69
677.259	-1.69
677.289	5.31
677.32	-2.69
677.351	3.31
677.382	-7.69
677.412	2.31
677.443	6.31
677.474	-3.69
677.505	-12.69
677.535	-8.69
677.566	-12.69
677.597	-18.69
677.627	-11.69
677.658	3.31
677.689	-5.69
677.72	1.31
677.75	0.31
677.781	1.31
677.812	-6.69
677.842	10.31
677.873	-2.69
677.904	-8.69
677.934	3.31
677.965	-0.69
677.996	-25.69
678.026	-2.69
678.057	-4.69
678.088	-6.69
678.118	-3.69
678.149	-5.69
678.18	-7.69
678.21	10.31
678.241	-10.69
678.272	-9.69
678.302	-12.69
678.333	5.31
678.363	11.31
678.394	11.31
678.425	-3.69
678.455	2.31
678.486	10.31
678.517	-7.69
678.547	7.31
678.578	-5.69
678.608	-18.69
678.639	1.31
678.67	-0.69
678.7	-5.69
678.731	-12.69
678.761	-5.69
678.792	-0.69
678.823	12.31
678.853	1.31
678.884	-2.69
678.914	1.31
678.945	6.31
678.975	-3.69
679.006	6.31
679.037	0.31
679.067	21.31
679.098	-17.69
679.128	-3.69
679.159	-0.69
679.189	2.31
679.22	-23.69
679.25	-2.69
679.281	8.31
679.312	-9.69
679.342	-6.69
679.373	14.31
679.403	-7.69
679.434	-0.69
679.464	-18.69
679.495	-9.69
679.525	-2.69
679.556	-15.69
679.586	14.31
679.617	10.31
679.647	-6.69
679.678	-8.69
679.708	-5.69
679.739	0.31
679.769	-3.69
679.8	2.31
679.83	-15.69
679.861	1.31
679.891	-5.69
679.922	1.31
679.952	-11.69
679.983	-7.69
680.013	4.31
680.044	-6.69
680.074	6.31
680.105	15.31
680.135	4.31
680.165	8.31
680.196	20.31
680.226	3.31
680.257	-14.69
680.287	-6.69
680.318	3.31
680.348	4.31
680.379	14.31
680.409	3.31
680.439	-0.69
680.47	0.31
680.5	-7.69
680.531	-1.69
680.561	5.31
680.592	7.31
680.622	16.31
680.652	8.31
680.683	14.31
680.713	-0.69
680.744	-11.69
680.774	-11.69
680.804	13.31
680.835	-7.69
680.865	-13.69
680.896	9.31
680.926	9.31
680.956	-0.69
680.987	-7.69
681.017	4.31
681.047	2.31
681.078	-3.69
681.108	6.31
681.139	1.31
681.169	-14.69
681.199	-14.69
681.23	-12.69
681.26	-21.69
681.29	6.31
681.321	-19.69
681.351	-10.69
681.381	-5.69
681.412	-8.69
681.442	8.31
681.472	14.31
681.503	-7.69
681.533	8.31
681.563	-9.69
681.594	3.31
681.624	18.31
681.654	-6.69
681.685	-9.69
681.715	-3.69
681.745	-2.69
681.775	-2.69
681.806	3.31
681.836	6.31
681.866	-8.69
681.897	-1.69
681.927	-6.69
681.957	-16.69
681.987	-4.69
682.018	-1.69
682.048	8.31
682.078	4.31
682.109	17.31
682.139	9.31
682.169	-5.69
682.199	-6.69
682.23	-23.69
682.26	-1.69
682.29	-5.69
682.32	-4.69
682.351	-3.69
682.381	-4.69
682.411	2.31
682.441	-1.69
682.472	-7.69
