Data from HighRes_H2_15_09_11_07_2024_HR4C61891__154__15-11-11-801.txt Node

Date: Thu Nov 07 15:11:11 EST 2024
User: crc00042
Spectrometer: HR4C6189
Trigger mode: 4
Integration Time (sec): 1.000000E-1
Scans to average: 1
Electric dark correction enabled: true
Nonlinearity correction enabled: false
Boxcar width: 0
XAxis mode: Wavelengths
Number of Pixels in Spectrum: 3648
>>>>>Begin Spectral Data<<<<<
639.567	-44.69
639.602	-44.69
639.636	-44.69
639.67	-44.69
639.704	-7.69
639.738	-5.69
639.773	9.31
639.807	-5.69
639.841	10.31
639.875	13.31
639.909	5.31
639.943	-4.69
639.978	-14.69
640.012	-3.69
640.046	18.31
640.08	-10.69
640.114	4.31
640.148	-15.69
640.182	-2.69
640.217	-11.69
640.251	22.31
640.285	12.31
640.319	-16.69
640.353	-0.69
640.387	1.31
640.421	2.31
640.455	-9.69
640.49	1.31
640.524	-0.69
640.558	-2.69
640.592	1.31
640.626	9.31
640.66	-0.69
640.694	-10.69
640.728	5.31
640.762	5.31
640.796	19.31
640.83	22.31
640.865	-11.69
640.899	-11.69
640.933	-3.69
640.967	-0.69
641.001	2.31
641.035	1.31
641.069	2.31
641.103	-0.69
641.137	-2.69
641.171	-22.69
641.205	11.31
641.239	4.31
641.273	9.31
641.307	5.31
641.341	13.31
641.375	-7.69
641.409	-6.69
641.443	3.31
641.477	10.31
641.511	9.31
641.545	9.31
641.579	5.31
641.614	15.31
641.648	9.31
641.682	4.31
641.716	-2.69
641.75	7.31
641.784	3.31
641.818	6.31
641.852	4.31
641.886	2.31
641.919	24.31
641.953	10.31
641.987	-9.69
642.021	5.31
642.055	15.31
642.089	36.31
642.123	18.31
642.157	-1.69
642.191	-14.69
642.225	4.31
642.259	-3.69
642.293	15.31
642.327	17.31
642.361	10.31
642.395	26.31
642.429	9.31
642.463	1.31
642.497	29.31
642.531	9.31
642.565	-10.69
642.599	8.31
642.633	2.31
642.666	2.31
642.7	11.31
642.734	20.31
642.768	-6.69
642.802	7.31
642.836	-3.69
642.87	-9.69
642.904	-1.69
642.938	6.31
642.972	-0.69
643.005	0.31
643.039	6.31
643.073	3.31
643.107	5.31
643.141	3.31
643.175	-3.69
643.209	-0.69
643.243	-5.69
643.276	-5.69
643.31	2.31
643.344	6.31
643.378	5.31
643.412	24.31
643.446	0.31
643.48	-13.69
643.513	6.31
643.547	3.31
643.581	4.31
643.615	14.31
643.649	13.31
643.683	-6.69
643.716	-7.69
643.75	10.31
643.784	-17.69
643.818	14.31
643.852	6.31
643.886	6.31
643.919	15.31
643.953	-23.69
643.987	-2.69
644.021	7.31
644.055	3.31
644.088	9.31
644.122	-0.69
644.156	-5.69
644.19	8.31
644.224	11.31
644.257	11.31
644.291	22.31
644.325	9.31
644.359	3.31
644.392	34.31
644.426	17.31
644.46	2.31
644.494	3.31
644.527	-6.69
644.561	7.31
644.595	11.31
644.629	-13.69
644.662	16.31
644.696	25.31
644.73	-3.69
644.764	19.31
644.797	8.31
644.831	12.31
644.865	12.31
644.899	11.31
644.932	24.31
644.966	15.31
645	21.31
645.033	17.31
645.067	-5.69
645.101	1.31
645.135	-4.69
645.168	-6.69
645.202	-0.69
645.236	17.31
645.269	10.31
645.303	-6.69
645.337	-4.69
645.37	-7.69
645.404	2.31
645.438	-12.69
645.471	-11.69
645.505	6.31
645.539	9.31
645.572	-3.69
645.606	-9.69
645.64	4.31
645.673	10.31
645.707	23.31
645.741	-4.69
645.774	-18.69
645.808	11.31
645.842	1.31
645.875	6.31
645.909	-3.69
645.943	-13.69
645.976	-3.69
646.01	6.31
646.043	14.31
646.077	5.31
646.111	5.31
646.144	8.31
646.178	13.31
646.212	-9.69
646.245	-2.69
646.279	-2.69
646.312	-5.69
646.346	10.31
646.38	-13.69
646.413	11.31
646.447	1.31
646.48	0.31
646.514	21.31
646.547	3.31
646.581	-3.69
646.615	-8.69
646.648	-11.69
646.682	8.31
646.715	-0.69
646.749	2.31
646.782	0.31
646.816	6.31
646.85	14.31
646.883	-6.69
646.917	3.31
646.95	10.31
646.984	2.31
647.017	4.31
647.051	11.31
647.084	10.31
647.118	-18.69
647.151	-2.69
647.185	4.31
647.218	6.31
647.252	23.31
647.285	-11.69
647.319	-0.69
647.353	-9.69
647.386	23.31
647.42	-4.69
647.453	5.31
647.487	7.31
647.52	16.31
647.553	1.31
647.587	4.31
647.62	2.31
647.654	3.31
647.687	-5.69
647.721	6.31
647.754	6.31
647.788	1.31
647.821	-15.69
647.855	-3.69
647.888	11.31
647.922	31.31
647.955	13.31
647.989	14.31
648.022	11.31
648.055	8.31
648.089	-10.69
648.122	14.31
648.156	2.31
648.189	-0.69
648.223	8.31
648.256	27.31
648.29	17.31
648.323	9.31
648.356	9.31
648.39	14.31
648.423	-10.69
648.457	-6.69
648.49	18.31
648.523	10.31
648.557	7.31
648.59	1.31
648.624	1.31
648.657	0.31
648.69	18.31
648.724	23.31
648.757	12.31
648.791	-4.69
648.824	16.31
648.857	19.31
648.891	-1.69
648.924	-8.69
648.957	3.31
648.991	-9.69
649.024	22.31
649.057	1.31
649.091	-14.69
649.124	4.31
649.158	1.31
649.191	23.31
649.224	5.31
649.258	-1.69
649.291	9.31
649.324	19.31
649.358	10.31
649.391	2.31
649.424	4.31
649.458	-8.69
649.491	2.31
649.524	-3.69
649.557	-12.69
649.591	-12.69
649.624	17.31
649.657	0.31
649.691	12.31
649.724	-2.69
649.757	-7.69
649.791	0.31
649.824	20.31
649.857	18.31
649.89	4.31
649.924	-9.69
649.957	-5.69
649.99	-27.69
650.023	-17.69
650.057	10.31
650.09	15.31
650.123	11.31
650.157	14.31
650.19	24.31
650.223	10.31
650.256	-16.69
650.29	6.31
650.323	7.31
650.356	14.31
650.389	5.31
650.423	-12.69
650.456	-11.69
650.489	3.31
650.522	1.31
650.555	4.31
650.589	1.31
650.622	9.31
650.655	26.31
650.688	2.31
650.721	1.31
650.755	15.31
650.788	14.31
650.821	5.31
650.854	-2.69
650.887	5.31
650.921	-4.69
650.954	-0.69
650.987	5.31
651.02	4.31
651.053	-5.69
651.087	-24.69
651.12	25.31
651.153	5.31
651.186	10.31
651.219	0.31
651.252	11.31
651.286	12.31
651.319	-3.69
651.352	-5.69
651.385	-3.69
651.418	9.31
651.451	9.31
651.484	14.31
651.518	-5.69
651.551	26.31
651.584	-8.69
651.617	22.31
651.65	7.31
651.683	13.31
651.716	-4.69
651.749	-22.69
651.783	-1.69
651.816	7.31
651.849	16.31
651.882	-5.69
651.915	-9.69
651.948	14.31
651.981	7.31
652.014	3.31
652.047	-13.69
652.08	-13.69
652.114	-3.69
652.147	-4.69
652.18	7.31
652.213	28.31
652.246	8.31
652.279	3.31
652.312	13.31
652.345	-2.69
652.378	19.31
652.411	18.31
652.444	-7.69
652.477	3.31
652.51	1.31
652.543	-2.69
652.576	17.31
652.609	-6.69
652.642	2.31
652.675	23.31
652.709	7.31
652.742	9.31
652.775	9.31
652.808	12.31
652.841	-4.69
652.874	4.31
652.907	-12.69
652.94	-4.69
652.973	-7.69
653.006	-7.69
653.039	-5.69
653.072	12.31
653.105	11.31
653.138	-18.69
653.171	6.31
653.204	1.31
653.237	3.31
653.27	1.31
653.303	13.31
653.336	13.31
653.368	-6.69
653.401	0.31
653.434	-4.69
653.467	-1.69
653.5	-11.69
653.533	7.31
653.566	0.31
653.599	7.31
653.632	2.31
653.665	-13.69
653.698	-14.69
653.731	-9.69
653.764	4.31
653.797	4.31
653.83	2.31
653.863	-0.69
653.896	15.31
653.929	4.31
653.961	4.31
653.994	-10.69
654.027	3.31
654.06	1.31
654.093	10.31
654.126	6.31
654.159	-15.69
654.192	-4.69
654.225	-10.69
654.258	-8.69
654.29	-8.69
654.323	-0.69
654.356	-2.69
654.389	22.31
654.422	1.31
654.455	-6.69
654.488	-3.69
654.521	-26.69
654.553	-15.69
654.586	11.31
654.619	5.31
654.652	4.31
654.685	14.31
654.718	32.31
654.751	22.31
654.783	-11.69
654.816	17.31
654.849	7.31
654.882	6.31
654.915	-3.69
654.948	12.31
654.98	3.31
655.013	-3.69
655.046	2.31
655.079	-0.69
655.112	8.31
655.144	-19.69
655.177	7.31
655.21	21.31
655.243	34.31
655.276	-4.69
655.308	-9.69
655.341	0.31
655.374	21.31
655.407	14.31
655.44	11.31
655.472	27.31
655.505	9.31
655.538	-6.69
655.571	10.31
655.603	4.31
655.636	28.31
655.669	21.31
655.702	23.31
655.734	-3.69
655.767	6.31
655.8	28.31
655.833	17.31
655.865	45.31
655.898	46.31
655.931	36.31
655.964	42.31
655.996	46.31
656.029	53.31
656.062	69.31
656.095	90.31
656.127	54.31
656.16	108.31
656.193	126.31
656.225	181.31
656.258	285.31
656.291	516.31
656.324	1123.31
656.356	3374.31
656.389	7619.31
656.422	6132.31
656.454	2106.31
656.487	667.31
656.52	265.31
656.552	121.31
656.585	62.31
656.618	76.31
656.65	61.31
656.683	30.31
656.716	23.31
656.748	-3.69
656.781	7.31
656.814	5.31
656.846	25.31
656.879	-3.69
656.912	6.31
656.944	-11.69
656.977	-1.69
657.01	8.31
657.042	14.31
657.075	14.31
657.108	4.31
657.14	10.31
657.173	17.31
657.205	29.31
657.238	10.31
657.271	1.31
657.303	-3.69
657.336	-3.69
657.369	2.31
657.401	9.31
657.434	10.31
657.466	7.31
657.499	3.31
657.532	-11.69
657.564	7.31
657.597	4.31
657.629	13.31
657.662	15.31
657.694	5.31
657.727	-9.69
657.76	20.31
657.792	-6.69
657.825	-3.69
657.857	9.31
657.89	3.31
657.922	12.31
657.955	10.31
657.987	4.31
658.02	32.31
658.053	15.31
658.085	8.31
658.118	2.31
658.15	4.31
658.183	27.31
658.215	-12.69
658.248	-9.69
658.28	1.31
658.313	6.31
658.345	11.31
658.378	13.31
658.41	4.31
658.443	10.31
658.475	0.31
658.508	-5.69
658.54	7.31
658.573	7.31
658.605	17.31
658.638	4.31
658.67	6.31
658.703	24.31
658.735	5.31
658.768	13.31
658.8	2.31
658.833	14.31
658.865	3.31
658.898	1.31
658.93	0.31
658.963	-11.69
658.995	-14.69
659.028	21.31
659.06	11.31
659.092	3.31
659.125	-8.69
659.157	6.31
659.19	-2.69
659.222	-7.69
659.255	-0.69
659.287	5.31
659.32	2.31
659.352	15.31
659.384	22.31
659.417	-5.69
659.449	-4.69
659.482	1.31
659.514	-8.69
659.546	15.31
659.579	-18.69
659.611	7.31
659.644	7.31
659.676	-5.69
659.708	1.31
659.741	-7.69
659.773	1.31
659.806	23.31
659.838	21.31
659.87	2.31
659.903	-14.69
659.935	20.31
659.967	13.31
660	7.31
660.032	-12.69
660.065	6.31
660.097	1.31
660.129	-9.69
660.162	-16.69
660.194	7.31
660.226	16.31
660.259	11.31
660.291	-10.69
660.323	-10.69
660.356	8.31
660.388	1.31
660.42	8.31
660.453	15.31
660.485	13.31
660.517	8.31
660.55	9.31
660.582	-1.69
660.614	6.31
660.647	-2.69
660.679	-11.69
660.711	0.31
660.743	-7.69
660.776	-10.69
660.808	-4.69
660.84	-6.69
660.873	-1.69
660.905	-8.69
660.937	-12.69
660.969	-3.69
661.002	5.31
661.034	21.31
661.066	-2.69
661.099	-2.69
661.131	12.31
661.163	12.31
661.195	0.31
661.228	4.31
661.26	-3.69
661.292	-11.69
661.324	3.31
661.357	-7.69
661.389	4.31
661.421	7.31
661.453	4.31
661.485	2.31
661.518	6.31
661.55	-3.69
661.582	-12.69
661.614	-3.69
661.647	4.31
661.679	7.31
661.711	-0.69
661.743	-6.69
661.775	15.31
661.808	14.31
661.84	9.31
661.872	14.31
661.904	6.31
661.936	12.31
661.969	-9.69
662.001	4.31
662.033	5.31
662.065	9.31
662.097	16.31
662.129	17.31
662.162	4.31
662.194	11.31
662.226	4.31
662.258	13.31
662.29	8.31
662.322	-16.69
662.355	-20.69
662.387	15.31
662.419	9.31
662.451	5.31
662.483	21.31
662.515	3.31
662.547	9.31
662.58	11.31
662.612	-18.69
662.644	-21.69
662.676	8.31
662.708	14.31
662.74	1.31
662.772	12.31
662.804	18.31
662.836	3.31
662.869	12.31
662.901	10.31
662.933	9.31
662.965	13.31
662.997	12.31
663.029	-4.69
663.061	-8.69
663.093	-13.69
663.125	7.31
663.157	2.31
663.189	3.31
663.221	19.31
663.254	7.31
663.286	13.31
663.318	28.31
663.35	-3.69
663.382	9.31
663.414	-2.69
663.446	-0.69
663.478	-12.69
663.51	21.31
663.542	1.31
663.574	5.31
663.606	10.31
663.638	-9.69
663.67	-6.69
663.702	-2.69
663.734	1.31
663.766	5.31
663.798	3.31
663.83	5.31
663.862	16.31
663.894	7.31
663.926	-1.69
663.958	4.31
663.99	2.31
664.022	2.31
664.054	5.31
664.086	9.31
664.118	-7.69
664.15	-27.69
664.182	1.31
664.214	-0.69
664.246	25.31
664.278	12.31
664.31	32.31
664.342	21.31
664.374	12.31
664.406	1.31
664.438	0.31
664.47	15.31
664.502	-3.69
664.534	6.31
664.566	-7.69
664.598	7.31
664.63	3.31
664.662	-1.69
664.693	-18.69
664.725	-9.69
664.757	9.31
664.789	-8.69
664.821	2.31
664.853	14.31
664.885	-12.69
664.917	-12.69
664.949	23.31
664.981	10.31
665.013	-3.69
665.045	-7.69
665.076	14.31
665.108	14.31
665.14	-10.69
665.172	4.31
665.204	17.31
665.236	10.31
665.268	8.31
665.3	-10.69
665.331	-10.69
665.363	-3.69
665.395	-12.69
665.427	-10.69
665.459	-14.69
665.491	-6.69
665.523	10.31
665.555	-1.69
665.586	3.31
665.618	-7.69
665.65	-11.69
665.682	10.31
665.714	5.31
665.746	-15.69
665.777	6.31
665.809	-1.69
665.841	8.31
665.873	4.31
665.905	5.31
665.937	11.31
665.968	10.31
666	4.31
666.032	4.31
666.064	8.31
666.096	8.31
666.127	11.31
666.159	9.31
666.191	7.31
666.223	6.31
666.255	17.31
666.286	13.31
666.318	-6.69
666.35	7.31
666.382	-5.69
666.413	-6.69
666.445	-15.69
666.477	-22.69
666.509	0.31
666.54	6.31
666.572	-1.69
666.604	0.31
666.636	-0.69
666.667	17.31
666.699	21.31
666.731	25.31
666.763	-5.69
666.794	-12.69
666.826	3.31
666.858	-6.69
666.89	5.31
666.921	-3.69
666.953	-4.69
666.985	13.31
667.017	19.31
667.048	-1.69
667.08	3.31
667.112	4.31
667.143	-14.69
667.175	4.31
667.207	-10.69
667.238	-12.69
667.27	-7.69
667.302	10.31
667.334	4.31
667.365	7.31
667.397	14.31
667.429	-7.69
667.46	9.31
667.492	5.31
667.524	0.31
667.555	14.31
667.587	-6.69
667.619	5.31
667.65	1.31
667.682	-1.69
667.714	-0.69
667.745	2.31
667.777	-2.69
667.808	18.31
667.84	3.31
667.872	-5.69
667.903	11.31
667.935	14.31
667.967	0.31
667.998	-4.69
668.03	15.31
668.061	20.31
668.093	-9.69
668.125	-4.69
668.156	7.31
668.188	-2.69
668.22	-9.69
668.251	2.31
668.283	6.31
668.314	9.31
668.346	-11.69
668.377	0.31
668.409	2.31
668.441	12.31
668.472	6.31
668.504	23.31
668.535	11.31
668.567	0.31
668.599	-13.69
668.63	3.31
668.662	3.31
668.693	28.31
668.725	-7.69
668.756	6.31
668.788	-6.69
668.819	-1.69
668.851	-2.69
668.882	-0.69
668.914	-5.69
668.946	-13.69
668.977	-20.69
669.009	-4.69
669.04	-11.69
669.072	-2.69
669.103	-0.69
669.135	-9.69
669.166	-0.69
669.198	11.31
669.229	0.31
669.261	-2.69
669.292	-12.69
669.324	7.31
669.355	10.31
669.387	1.31
669.418	5.31
669.45	-7.69
669.481	-4.69
669.513	0.31
669.544	-2.69
669.576	1.31
669.607	6.31
669.639	7.31
669.67	-5.69
669.701	3.31
669.733	-17.69
669.764	-0.69
669.796	-2.69
669.827	2.31
669.859	-13.69
669.89	2.31
669.922	7.31
669.953	8.31
669.985	-3.69
670.016	23.31
670.047	8.31
670.079	-0.69
670.11	4.31
670.142	-8.69
670.173	-10.69
670.204	3.31
670.236	9.31
670.267	-3.69
670.299	-5.69
670.33	3.31
670.362	13.31
670.393	1.31
670.424	6.31
670.456	-7.69
670.487	0.31
670.518	-7.69
670.55	-18.69
670.581	9.31
670.613	1.31
670.644	-0.69
670.675	-1.69
670.707	2.31
670.738	7.31
670.769	2.31
670.801	-5.69
670.832	1.31
670.864	-20.69
670.895	-5.69
670.926	-4.69
670.958	-9.69
670.989	-4.69
671.02	-2.69
671.052	-1.69
671.083	5.31
671.114	-3.69
671.146	-1.69
671.177	6.31
671.208	10.31
671.24	-3.69
671.271	-14.69
671.302	7.31
671.333	-4.69
671.365	2.31
671.396	-5.69
671.427	13.31
671.459	-4.69
671.49	2.31
671.521	12.31
671.553	14.31
671.584	-3.69
671.615	-21.69
671.646	0.31
671.678	-10.69
671.709	1.31
671.74	-8.69
671.771	-13.69
671.803	-8.69
671.834	1.31
671.865	7.31
671.896	9.31
671.928	10.31
671.959	0.31
671.99	10.31
672.021	-5.69
672.053	-23.69
672.084	1.31
672.115	11.31
672.146	0.31
672.178	-13.69
672.209	10.31
672.24	-10.69
672.271	23.31
672.303	0.31
672.334	-9.69
672.365	-0.69
672.396	4.31
672.427	3.31
672.459	5.31
672.49	17.31
672.521	3.31
672.552	16.31
672.583	5.31
672.615	-1.69
672.646	7.31
672.677	-1.69
672.708	6.31
672.739	10.31
672.77	25.31
672.802	15.31
672.833	-12.69
672.864	7.31
672.895	-12.69
672.926	-1.69
672.957	-7.69
672.989	-9.69
673.02	7.31
673.051	-4.69
673.082	6.31
673.113	-15.69
673.144	5.31
673.175	-3.69
673.206	-13.69
673.238	-3.69
673.269	2.31
673.3	7.31
673.331	22.31
673.362	8.31
673.393	19.31
673.424	9.31
673.455	15.31
673.487	2.31
673.518	9.31
673.549	13.31
673.58	-1.69
673.611	4.31
673.642	-5.69
673.673	-4.69
673.704	15.31
673.735	-5.69
673.766	-1.69
673.797	-0.69
673.828	2.31
673.86	-8.69
673.891	-19.69
673.922	-13.69
673.953	1.31
673.984	21.31
674.015	12.31
674.046	-10.69
674.077	2.31
674.108	-2.69
674.139	-0.69
674.17	14.31
674.201	0.31
674.232	-18.69
674.263	-9.69
674.294	5.31
674.325	-13.69
674.356	14.31
674.387	3.31
674.418	4.31
674.449	2.31
674.48	-15.69
674.511	-8.69
674.542	5.31
674.573	-21.69
674.604	0.31
674.635	-4.69
674.666	1.31
674.697	3.31
674.728	-5.69
674.759	-5.69
674.79	-6.69
674.821	2.31
674.852	-9.69
674.883	-15.69
674.914	-13.69
674.945	3.31
674.976	1.31
675.007	-3.69
675.038	-4.69
675.069	-14.69
675.1	3.31
675.131	8.31
675.162	-2.69
675.193	-9.69
675.224	-15.69
675.254	6.31
675.285	3.31
675.316	24.31
675.347	3.31
675.378	-14.69
675.409	6.31
675.44	6.31
675.471	10.31
675.502	-4.69
675.533	5.31
675.564	-11.69
675.595	5.31
675.625	3.31
675.656	11.31
675.687	8.31
675.718	-20.69
675.749	-2.69
675.78	-1.69
675.811	-10.69
675.842	15.31
675.873	9.31
675.903	9.31
675.934	8.31
675.965	1.31
675.996	-3.69
676.027	3.31
676.058	6.31
676.089	-1.69
676.119	-1.69
676.15	-7.69
676.181	20.31
676.212	0.31
676.243	22.31
676.274	-10.69
676.304	31.31
676.335	-9.69
676.366	3.31
676.397	-9.69
676.428	1.31
676.459	1.31
676.489	0.31
676.52	-0.69
676.551	5.31
676.582	-19.69
676.613	6.31
676.643	-0.69
676.674	7.31
676.705	-1.69
676.736	2.31
676.767	0.31
676.797	-3.69
676.828	6.31
676.859	13.31
676.89	3.31
676.92	-1.69
676.951	15.31
676.982	4.31
677.013	-3.69
677.044	19.31
677.074	6.31
677.105	-2.69
677.136	7.31
677.167	-7.69
677.197	8.31
677.228	6.31
677.259	2.31
677.289	-1.69
677.32	-18.69
677.351	-12.69
677.382	1.31
677.412	-20.69
677.443	8.31
677.474	1.31
677.505	-6.69
677.535	-2.69
677.566	7.31
677.597	-10.69
677.627	-9.69
677.658	-8.69
677.689	0.31
677.72	-9.69
677.75	-0.69
677.781	0.31
677.812	-7.69
677.842	20.31
677.873	2.31
677.904	17.31
677.934	4.31
677.965	-3.69
677.996	-5.69
678.026	16.31
678.057	-1.69
678.088	-11.69
678.118	-3.69
678.149	2.31
678.18	-2.69
678.21	3.31
678.241	-0.69
678.272	10.31
678.302	-3.69
678.333	-0.69
678.363	9.31
678.394	9.31
678.425	6.31
678.455	2.31
678.486	14.31
678.517	-7.69
678.547	4.31
678.578	6.31
678.608	-8.69
678.639	9.31
678.67	-3.69
678.7	2.31
678.731	-3.69
678.761	5.31
678.792	16.31
678.823	11.31
678.853	13.31
678.884	-5.69
678.914	-2.69
678.945	23.31
678.975	-8.69
679.006	12.31
679.037	4.31
679.067	24.31
679.098	-4.69
679.128	-18.69
679.159	0.31
679.189	4.31
679.22	-6.69
679.25	6.31
679.281	16.31
679.312	8.31
679.342	-1.69
679.373	20.31
679.403	13.31
679.434	19.31
679.464	-2.69
679.495	14.31
679.525	22.31
679.556	9.31
679.586	1.31
679.617	8.31
679.647	0.31
679.678	-0.69
679.708	4.31
679.739	-2.69
679.769	6.31
679.8	-5.69
679.83	0.31
679.861	-3.69
679.891	-1.69
679.922	-4.69
679.952	0.31
679.983	-0.69
680.013	9.31
680.044	-12.69
680.074	23.31
680.105	3.31
680.135	2.31
680.165	19.31
680.196	6.31
680.226	8.31
680.257	13.31
680.287	24.31
680.318	3.31
680.348	-5.69
680.379	19.31
680.409	2.31
680.439	-8.69
680.47	-3.69
680.5	-3.69
680.531	4.31
680.561	3.31
680.592	0.31
680.622	8.31
680.652	8.31
680.683	20.31
680.713	-4.69
680.744	1.31
680.774	2.31
680.804	16.31
680.835	-4.69
680.865	-8.69
680.896	13.31
680.926	24.31
680.956	6.31
680.987	5.31
681.017	-3.69
681.047	4.31
681.078	-2.69
681.108	2.31
681.139	0.31
681.169	-7.69
681.199	-9.69
681.23	6.31
681.26	-3.69
681.29	4.31
681.321	-0.69
681.351	-1.69
681.381	-9.69
681.412	-4.69
681.442	-0.69
681.472	11.31
681.503	2.31
681.533	6.31
681.563	9.31
681.594	-6.69
681.624	-0.69
681.654	2.31
681.685	3.31
681.715	3.31
681.745	8.31
681.775	-6.69
681.806	-5.69
681.836	-6.69
681.866	-6.69
681.897	-3.69
681.927	-9.69
681.957	-9.69
681.987	1.31
682.018	4.31
682.048	12.31
682.078	12.31
682.109	8.31
682.139	8.31
682.169	8.31
682.199	0.31
682.23	-6.69
682.26	-10.69
682.29	7.31
682.32	-1.69
682.351	-11.69
682.381	0.31
682.411	-1.69
682.441	-0.69
682.472	3.31
682.502	-6.69
682.532	4.31
682.562	9.31
682.592	5.31
682.623	9.31
682.653	13.31
682.683	-1.69
