Data from HighRes_H2_15_09_11_07_2024_HR4C61891__68__15-11-03-202.txt Node

Date: Thu Nov 07 15:11:03 EST 2024
User: crc00042
Spectrometer: HR4C6189
Trigger mode: 4
Integration Time (sec): 1.000000E-1
Scans to average: 1
Electric dark correction enabled: true
Nonlinearity correction enabled: false
Boxcar width: 0
XAxis mode: Wavelengths
Number of Pixels in Spectrum: 3648
>>>>>Begin Spectral Data<<<<<
639.567	-18.38
639.602	-18.38
639.636	-18.38
639.67	-37.38
639.704	-16.38
639.738	-2.38
639.773	2.62
639.807	-10.38
639.841	3.62
639.875	12.62
639.909	-9.38
639.943	-15.38
639.978	-1.38
640.012	-8.38
640.046	23.62
640.08	11.62
640.114	0.62
640.148	-7.38
640.182	1.62
640.217	5.62
640.251	21.62
640.285	11.62
640.319	1.62
640.353	17.62
640.387	15.62
640.421	8.62
640.455	4.62
640.49	2.62
640.524	-0.38
640.558	-4.38
640.592	-2.38
640.626	9.62
640.66	9.62
640.694	7.62
640.728	22.62
640.762	16.62
640.796	15.62
640.83	22.62
640.865	-6.38
640.899	6.62
640.933	1.62
640.967	-10.38
641.001	3.62
641.035	11.62
641.069	10.62
641.103	-1.38
641.137	7.62
641.171	-12.38
641.205	15.62
641.239	8.62
641.273	15.62
641.307	14.62
641.341	-0.38
641.375	0.62
641.409	-18.38
641.443	-5.38
641.477	10.62
641.511	9.62
641.545	12.62
641.579	5.62
641.614	11.62
641.648	11.62
641.682	-0.38
641.716	13.62
641.75	0.62
641.784	9.62
641.818	8.62
641.852	-0.38
641.886	-9.38
641.919	24.62
641.953	-1.38
641.987	-1.38
642.021	-0.38
642.055	5.62
642.089	5.62
642.123	6.62
642.157	-6.38
642.191	5.62
642.225	13.62
642.259	-0.38
642.293	15.62
642.327	-1.38
642.361	4.62
642.395	3.62
642.429	12.62
642.463	9.62
642.497	28.62
642.531	-2.38
642.565	-8.38
642.599	26.62
642.633	6.62
642.666	3.62
642.7	16.62
642.734	16.62
642.768	-24.38
642.802	-3.38
642.836	9.62
642.87	10.62
642.904	-5.38
642.938	5.62
642.972	-3.38
643.005	8.62
643.039	16.62
643.073	11.62
643.107	7.62
643.141	-18.38
643.175	5.62
643.209	15.62
643.243	8.62
643.276	22.62
643.31	1.62
643.344	4.62
643.378	8.62
643.412	16.62
643.446	9.62
643.48	-1.38
643.513	-0.38
643.547	-1.38
643.581	0.62
643.615	12.62
643.649	19.62
643.683	5.62
643.716	15.62
643.75	13.62
643.784	2.62
643.818	11.62
643.852	-2.38
643.886	0.62
643.919	3.62
643.953	1.62
643.987	-0.38
644.021	30.62
644.055	16.62
644.088	6.62
644.122	-0.38
644.156	-5.38
644.19	7.62
644.224	1.62
644.257	15.62
644.291	11.62
644.325	11.62
644.359	-1.38
644.392	31.62
644.426	27.62
644.46	7.62
644.494	10.62
644.527	3.62
644.561	4.62
644.595	15.62
644.629	5.62
644.662	9.62
644.696	11.62
644.73	28.62
644.764	17.62
644.797	10.62
644.831	10.62
644.865	15.62
644.899	-5.38
644.932	21.62
644.966	-1.38
645	19.62
645.033	22.62
645.067	-9.38
645.101	2.62
645.135	4.62
645.168	8.62
645.202	1.62
645.236	12.62
645.269	22.62
645.303	12.62
645.337	-1.38
645.37	4.62
645.404	4.62
645.438	18.62
645.471	-2.38
645.505	10.62
645.539	10.62
645.572	4.62
645.606	-2.38
645.64	12.62
645.673	5.62
645.707	34.62
645.741	12.62
645.774	6.62
645.808	11.62
645.842	15.62
645.875	18.62
645.909	1.62
645.943	3.62
645.976	-1.38
646.01	8.62
646.043	2.62
646.077	17.62
646.111	30.62
646.144	32.62
646.178	18.62
646.212	1.62
646.245	1.62
646.279	-2.38
646.312	3.62
646.346	17.62
646.38	9.62
646.413	27.62
646.447	11.62
646.48	14.62
646.514	18.62
646.547	-8.38
646.581	-2.38
646.615	6.62
646.648	11.62
646.682	14.62
646.715	8.62
646.749	18.62
646.782	16.62
646.816	8.62
646.85	-1.38
646.883	-4.38
646.917	13.62
646.95	9.62
646.984	18.62
647.017	1.62
647.051	7.62
647.084	10.62
647.118	-2.38
647.151	6.62
647.185	2.62
647.218	-3.38
647.252	10.62
647.285	10.62
647.319	6.62
647.353	11.62
647.386	14.62
647.42	6.62
647.453	5.62
647.487	4.62
647.52	12.62
647.553	4.62
647.587	-1.38
647.62	-1.38
647.654	14.62
647.687	16.62
647.721	19.62
647.754	10.62
647.788	8.62
647.821	-5.38
647.855	22.62
647.888	13.62
647.922	9.62
647.955	29.62
647.989	11.62
648.022	12.62
648.055	13.62
648.089	-14.38
648.122	23.62
648.156	1.62
648.189	13.62
648.223	29.62
648.256	29.62
648.29	14.62
648.323	11.62
648.356	9.62
648.39	13.62
648.423	19.62
648.457	5.62
648.49	13.62
648.523	16.62
648.557	1.62
648.59	-8.38
648.624	11.62
648.657	14.62
648.69	22.62
648.724	7.62
648.757	33.62
648.791	9.62
648.824	24.62
648.857	18.62
648.891	16.62
648.924	31.62
648.957	20.62
648.991	-5.38
649.024	9.62
649.057	1.62
649.091	11.62
649.124	7.62
649.158	16.62
649.191	35.62
649.224	15.62
649.258	9.62
649.291	14.62
649.324	23.62
649.358	12.62
649.391	21.62
649.424	11.62
649.458	5.62
649.491	1.62
649.524	8.62
649.557	-3.38
649.591	-0.38
649.624	16.62
649.657	9.62
649.691	10.62
649.724	8.62
649.757	-3.38
649.791	5.62
649.824	25.62
649.857	12.62
649.89	14.62
649.924	1.62
649.957	10.62
649.99	-6.38
650.023	7.62
650.057	-0.38
650.09	1.62
650.123	19.62
650.157	19.62
650.19	26.62
650.223	16.62
650.256	-3.38
650.29	-3.38
650.323	-3.38
650.356	24.62
650.389	-6.38
650.423	6.62
650.456	10.62
650.489	4.62
650.522	0.62
650.555	20.62
650.589	18.62
650.622	13.62
650.655	19.62
650.688	13.62
650.721	12.62
650.755	-4.38
650.788	16.62
650.821	5.62
650.854	13.62
650.887	5.62
650.921	0.62
650.954	-16.38
650.987	-0.38
651.02	-6.38
651.053	-4.38
651.087	-1.38
651.12	19.62
651.153	14.62
651.186	-6.38
651.219	-1.38
651.252	22.62
651.286	23.62
651.319	-11.38
651.352	-9.38
651.385	18.62
651.418	10.62
651.451	18.62
651.484	19.62
651.518	-0.38
651.551	34.62
651.584	-2.38
651.617	17.62
651.65	16.62
651.683	21.62
651.716	3.62
651.749	9.62
651.783	-0.38
651.816	0.62
651.849	9.62
651.882	8.62
651.915	-1.38
651.948	-2.38
651.981	-9.38
652.014	-21.38
652.047	-7.38
652.08	3.62
652.114	21.62
652.147	1.62
652.18	8.62
652.213	15.62
652.246	7.62
652.279	0.62
652.312	9.62
652.345	16.62
652.378	17.62
652.411	18.62
652.444	13.62
652.477	8.62
652.51	13.62
652.543	-1.38
652.576	13.62
652.609	5.62
652.642	2.62
652.675	23.62
652.709	27.62
652.742	10.62
652.775	5.62
652.808	15.62
652.841	4.62
652.874	8.62
652.907	11.62
652.94	-4.38
652.973	5.62
653.006	4.62
653.039	9.62
653.072	1.62
653.105	5.62
653.138	-11.38
653.171	-2.38
653.204	-9.38
653.237	14.62
653.27	-3.38
653.303	7.62
653.336	23.62
653.368	20.62
653.401	11.62
653.434	-7.38
653.467	-2.38
653.5	-6.38
653.533	-13.38
653.566	8.62
653.599	14.62
653.632	26.62
653.665	10.62
653.698	-18.38
653.731	-2.38
653.764	22.62
653.797	16.62
653.83	10.62
653.863	-3.38
653.896	-0.38
653.929	-12.38
653.961	0.62
653.994	2.62
654.027	-8.38
654.06	3.62
654.093	10.62
654.126	12.62
654.159	-9.38
654.192	17.62
654.225	2.62
654.258	-10.38
654.29	2.62
654.323	6.62
654.356	-1.38
654.389	19.62
654.422	11.62
654.455	14.62
654.488	2.62
654.521	-13.38
654.553	4.62
654.586	11.62
654.619	-0.38
654.652	-0.38
654.685	26.62
654.718	23.62
654.751	7.62
654.783	7.62
654.816	9.62
654.849	17.62
654.882	2.62
654.915	-7.38
654.948	29.62
654.98	19.62
655.013	3.62
655.046	2.62
655.079	13.62
655.112	2.62
655.144	17.62
655.177	10.62
655.21	4.62
655.243	20.62
655.276	3.62
655.308	13.62
655.341	2.62
655.374	8.62
655.407	17.62
655.44	12.62
655.472	15.62
655.505	9.62
655.538	-10.38
655.571	17.62
655.603	9.62
655.636	9.62
655.669	25.62
655.702	24.62
655.734	6.62
655.767	13.62
655.8	26.62
655.833	27.62
655.865	48.62
655.898	27.62
655.931	39.62
655.964	41.62
655.996	52.62
656.029	67.62
656.062	49.62
656.095	75.62
656.127	75.62
656.16	117.62
656.193	125.62
656.225	172.62
656.258	272.62
656.291	503.62
656.324	1134.62
656.356	3392.62
656.389	7600.62
656.422	6064.62
656.454	2080.62
656.487	672.62
656.52	273.62
656.552	121.62
656.585	76.62
656.618	61.62
656.65	46.62
656.683	25.62
656.716	16.62
656.748	1.62
656.781	10.62
656.814	13.62
656.846	33.62
656.879	4.62
656.912	2.62
656.944	-10.38
656.977	-10.38
657.01	2.62
657.042	14.62
657.075	16.62
657.108	7.62
657.14	17.62
657.173	29.62
657.205	32.62
657.238	24.62
657.271	4.62
657.303	-7.38
657.336	-7.38
657.369	-2.38
657.401	14.62
657.434	5.62
657.466	-6.38
657.499	10.62
657.532	-4.38
657.564	20.62
657.597	12.62
657.629	11.62
657.662	-11.38
657.694	5.62
657.727	2.62
657.76	26.62
657.792	-3.38
657.825	-1.38
657.857	8.62
657.89	5.62
657.922	7.62
657.955	-2.38
657.987	7.62
658.02	5.62
658.053	17.62
658.085	3.62
658.118	8.62
658.15	22.62
658.183	17.62
658.215	-2.38
658.248	2.62
658.28	0.62
658.313	16.62
658.345	7.62
658.378	-3.38
658.41	5.62
658.443	18.62
658.475	5.62
658.508	15.62
658.54	7.62
658.573	-4.38
658.605	12.62
658.638	9.62
658.67	0.62
658.703	8.62
658.735	-3.38
658.768	6.62
658.8	-0.38
658.833	28.62
658.865	17.62
658.898	9.62
658.93	-3.38
658.963	13.62
658.995	-2.38
659.028	7.62
659.06	2.62
659.092	6.62
659.125	-14.38
659.157	9.62
659.19	2.62
659.222	-10.38
659.255	9.62
659.287	6.62
659.32	-0.38
659.352	10.62
659.384	31.62
659.417	-5.38
659.449	10.62
659.482	17.62
659.514	11.62
659.546	3.62
659.579	-1.38
659.611	18.62
659.644	-4.38
659.676	-1.38
659.708	-2.38
659.741	8.62
659.773	17.62
659.806	8.62
659.838	14.62
659.87	17.62
659.903	-17.38
659.935	17.62
659.967	21.62
660	20.62
660.032	-20.38
660.065	27.62
660.097	8.62
660.129	-11.38
660.162	-8.38
660.194	8.62
660.226	6.62
660.259	22.62
660.291	9.62
660.323	0.62
660.356	1.62
660.388	-7.38
660.42	0.62
660.453	10.62
660.485	17.62
660.517	29.62
660.55	25.62
660.582	20.62
660.614	-9.38
660.647	1.62
660.679	-0.38
660.711	-3.38
660.743	-8.38
660.776	-11.38
660.808	9.62
660.84	11.62
660.873	0.62
660.905	-0.38
660.937	-1.38
660.969	6.62
661.002	-2.38
661.034	23.62
661.066	8.62
661.099	21.62
661.131	14.62
661.163	-2.38
661.195	15.62
661.228	9.62
661.26	12.62
661.292	2.62
661.324	15.62
661.357	-3.38
661.389	20.62
661.421	11.62
661.453	7.62
661.485	11.62
661.518	13.62
661.55	-8.38
661.582	1.62
661.614	-2.38
661.647	6.62
661.679	13.62
661.711	21.62
661.743	-4.38
661.775	0.62
661.808	22.62
661.84	-0.38
661.872	12.62
661.904	2.62
661.936	8.62
661.969	5.62
662.001	-5.38
662.033	7.62
662.065	-2.38
662.097	21.62
662.129	15.62
662.162	-10.38
662.194	3.62
662.226	11.62
662.258	1.62
662.29	2.62
662.322	1.62
662.355	-3.38
662.387	25.62
662.419	17.62
662.451	6.62
662.483	-7.38
662.515	-2.38
662.547	12.62
662.58	-5.38
662.612	-18.38
662.644	-15.38
662.676	10.62
662.708	17.62
662.74	-2.38
662.772	-9.38
662.804	1.62
662.836	13.62
662.869	0.62
662.901	10.62
662.933	-8.38
662.965	18.62
662.997	25.62
663.029	-12.38
663.061	-8.38
663.093	3.62
663.125	7.62
663.157	16.62
663.189	2.62
663.221	7.62
663.254	6.62
663.286	11.62
663.318	19.62
663.35	-17.38
663.382	-6.38
663.414	16.62
663.446	15.62
663.478	9.62
663.51	20.62
663.542	-5.38
663.574	6.62
663.606	3.62
663.638	-7.38
663.67	-6.38
663.702	12.62
663.734	-7.38
663.766	14.62
663.798	0.62
663.83	15.62
663.862	21.62
663.894	8.62
663.926	10.62
663.958	31.62
663.99	18.62
664.022	0.62
664.054	9.62
664.086	-5.38
664.118	-30.38
664.15	-4.38
664.182	5.62
664.214	1.62
664.246	17.62
664.278	9.62
664.31	20.62
664.342	21.62
664.374	7.62
664.406	7.62
664.438	4.62
664.47	24.62
664.502	-5.38
664.534	6.62
664.566	2.62
664.598	25.62
664.63	5.62
664.662	19.62
664.693	9.62
664.725	9.62
664.757	1.62
664.789	-2.38
664.821	10.62
664.853	20.62
664.885	9.62
664.917	4.62
664.949	19.62
664.981	23.62
665.013	8.62
665.045	-16.38
665.076	8.62
665.108	10.62
665.14	-12.38
665.172	8.62
665.204	4.62
665.236	-7.38
665.268	20.62
665.3	7.62
665.331	-7.38
665.363	3.62
665.395	-2.38
665.427	-10.38
665.459	-2.38
665.491	-6.38
665.523	12.62
665.555	2.62
665.586	6.62
665.618	1.62
665.65	-1.38
665.682	20.62
665.714	16.62
665.746	-8.38
665.777	-9.38
665.809	9.62
665.841	13.62
665.873	-3.38
665.905	3.62
665.937	14.62
665.968	19.62
666	17.62
666.032	8.62
666.064	5.62
666.096	-14.38
666.127	-0.38
666.159	19.62
666.191	7.62
666.223	-0.38
666.255	14.62
666.286	8.62
666.318	7.62
666.35	7.62
666.382	16.62
666.413	-16.38
666.445	5.62
666.477	-18.38
666.509	-4.38
666.54	-2.38
666.572	4.62
666.604	6.62
666.636	-0.38
666.667	8.62
666.699	19.62
666.731	13.62
666.763	-0.38
666.794	-0.38
666.826	5.62
666.858	-2.38
666.89	10.62
666.921	8.62
666.953	7.62
666.985	9.62
667.017	1.62
667.048	-7.38
667.08	-0.38
667.112	4.62
667.143	-5.38
667.175	7.62
667.207	-3.38
667.238	-2.38
667.27	6.62
667.302	8.62
667.334	-0.38
667.365	29.62
667.397	14.62
667.429	7.62
667.46	5.62
667.492	17.62
667.524	-0.38
667.555	-6.38
667.587	-0.38
667.619	-1.38
667.65	-10.38
667.682	11.62
667.714	33.62
667.745	15.62
667.777	5.62
667.808	24.62
667.84	17.62
667.872	18.62
667.903	29.62
667.935	-5.38
667.967	10.62
667.998	1.62
668.03	0.62
668.061	12.62
668.093	-8.38
668.125	19.62
668.156	14.62
668.188	6.62
668.22	-9.38
668.251	7.62
668.283	15.62
668.314	10.62
668.346	6.62
668.377	14.62
668.409	7.62
668.441	16.62
668.472	4.62
668.504	17.62
668.535	19.62
668.567	14.62
668.599	16.62
668.63	5.62
668.662	3.62
668.693	15.62
668.725	14.62
668.756	8.62
668.788	8.62
668.819	7.62
668.851	-1.38
668.882	0.62
668.914	6.62
668.946	-12.38
668.977	-1.38
669.009	-1.38
669.04	-3.38
669.072	14.62
669.103	2.62
669.135	11.62
669.166	8.62
669.198	17.62
669.229	-5.38
669.261	9.62
669.292	10.62
669.324	16.62
669.355	16.62
669.387	-15.38
669.418	9.62
669.45	-0.38
669.481	5.62
669.513	-0.38
669.544	7.62
669.576	4.62
669.607	30.62
669.639	31.62
669.67	-2.38
669.701	18.62
669.733	4.62
669.764	-2.38
669.796	12.62
669.827	8.62
669.859	1.62
669.89	4.62
669.922	10.62
669.953	26.62
669.985	12.62
670.016	17.62
670.047	8.62
670.079	8.62
670.11	19.62
670.142	-2.38
670.173	13.62
670.204	-3.38
670.236	10.62
670.267	4.62
670.299	-4.38
670.33	13.62
670.362	9.62
670.393	2.62
670.424	14.62
670.456	-3.38
670.487	15.62
670.518	10.62
670.55	25.62
670.581	9.62
670.613	-7.38
670.644	-2.38
670.675	9.62
670.707	4.62
670.738	9.62
670.769	7.62
670.801	-0.38
670.832	20.62
670.864	-0.38
670.895	20.62
670.926	0.62
670.958	2.62
670.989	7.62
671.02	0.62
671.052	1.62
671.083	-2.38
671.114	-13.38
671.146	13.62
671.177	19.62
671.208	8.62
671.24	6.62
671.271	7.62
671.302	22.62
671.333	-4.38
671.365	11.62
671.396	-4.38
671.427	1.62
671.459	19.62
671.49	17.62
671.521	16.62
671.553	9.62
671.584	4.62
671.615	2.62
671.646	10.62
671.678	11.62
671.709	-6.38
671.74	-3.38
671.771	-1.38
671.803	0.62
671.834	4.62
671.865	-3.38
671.896	4.62
671.928	-0.38
671.959	16.62
671.99	23.62
672.021	13.62
672.053	6.62
672.084	28.62
672.115	19.62
672.146	9.62
672.178	-2.38
672.209	2.62
672.24	4.62
672.271	24.62
672.303	11.62
672.334	11.62
672.365	5.62
672.396	0.62
672.427	6.62
672.459	14.62
672.49	48.62
672.521	16.62
672.552	19.62
672.583	-3.38
672.615	0.62
672.646	-0.38
672.677	-12.38
672.708	7.62
672.739	17.62
672.77	29.62
672.802	8.62
672.833	16.62
672.864	6.62
672.895	-6.38
672.926	-5.38
672.957	-8.38
672.989	-8.38
673.02	-12.38
673.051	5.62
673.082	16.62
673.113	-18.38
673.144	7.62
673.175	-13.38
673.206	2.62
673.238	8.62
673.269	12.62
673.3	-1.38
673.331	10.62
673.362	-14.38
673.393	-2.38
673.424	1.62
673.455	8.62
673.487	9.62
673.518	11.62
673.549	3.62
673.58	-0.38
673.611	-0.38
673.642	7.62
673.673	2.62
673.704	7.62
673.735	-2.38
673.766	-4.38
673.797	-6.38
673.828	7.62
673.86	-5.38
673.891	-5.38
673.922	2.62
673.953	-5.38
673.984	25.62
674.015	9.62
674.046	0.62
674.077	4.62
674.108	-2.38
674.139	-2.38
674.17	4.62
674.201	-7.38
674.232	10.62
674.263	-11.38
674.294	5.62
674.325	-8.38
674.356	5.62
674.387	14.62
674.418	3.62
674.449	-1.38
674.48	-5.38
674.511	8.62
674.542	19.62
674.573	7.62
674.604	12.62
674.635	14.62
674.666	-2.38
674.697	10.62
674.728	4.62
674.759	3.62
674.79	-6.38
674.821	6.62
674.852	-2.38
674.883	-2.38
674.914	-1.38
674.945	1.62
674.976	1.62
675.007	18.62
675.038	0.62
675.069	-8.38
675.1	-3.38
675.131	4.62
675.162	-11.38
675.193	-6.38
675.224	-6.38
675.254	5.62
675.285	13.62
675.316	15.62
675.347	10.62
675.378	-9.38
675.409	-7.38
675.44	12.62
675.471	12.62
675.502	-14.38
675.533	-3.38
675.564	10.62
675.595	4.62
675.625	28.62
675.656	10.62
675.687	-1.38
675.718	-22.38
675.749	4.62
675.78	11.62
675.811	-3.38
675.842	1.62
675.873	7.62
675.903	4.62
675.934	4.62
675.965	-2.38
675.996	-11.38
676.027	-1.38
676.058	0.62
676.089	-20.38
676.119	2.62
676.15	1.62
676.181	1.62
676.212	-4.38
676.243	-3.38
676.274	9.62
676.304	24.62
676.335	1.62
676.366	14.62
676.397	7.62
676.428	-7.38
676.459	19.62
676.489	13.62
676.52	8.62
676.551	-4.38
676.582	-4.38
676.613	-4.38
676.643	-0.38
676.674	0.62
676.705	9.62
676.736	13.62
676.767	16.62
676.797	20.62
676.828	9.62
676.859	8.62
676.89	-10.38
676.92	0.62
676.951	8.62
676.982	-9.38
677.013	2.62
677.044	11.62
677.074	17.62
677.105	5.62
677.136	15.62
677.167	11.62
677.197	11.62
677.228	6.62
677.259	7.62
677.289	0.62
677.32	-7.38
677.351	14.62
677.382	-5.38
677.412	-17.38
677.443	10.62
677.474	-6.38
677.505	-14.38
677.535	8.62
677.566	-7.38
677.597	-6.38
677.627	-25.38
677.658	10.62
677.689	7.62
677.72	-8.38
677.75	-1.38
677.781	0.62
677.812	10.62
677.842	15.62
677.873	13.62
677.904	6.62
677.934	11.62
677.965	5.62
677.996	-11.38
678.026	2.62
678.057	10.62
678.088	-0.38
678.118	-8.38
678.149	2.62
678.18	-9.38
678.21	2.62
678.241	2.62
678.272	2.62
678.302	-5.38
678.333	6.62
678.363	7.62
678.394	-6.38
678.425	11.62
678.455	0.62
678.486	22.62
678.517	-7.38
678.547	0.62
678.578	4.62
678.608	-7.38
678.639	8.62
678.67	-1.38
678.7	-13.38
678.731	-6.38
678.761	-0.38
678.792	3.62
678.823	4.62
678.853	6.62
678.884	5.62
678.914	20.62
678.945	4.62
678.975	8.62
679.006	-12.38
679.037	1.62
679.067	38.62
679.098	7.62
679.128	7.62
679.159	6.62
679.189	19.62
679.22	-3.38
679.25	15.62
679.281	-0.38
679.312	-2.38
679.342	16.62
679.373	37.62
679.403	12.62
679.434	0.62
679.464	-14.38
679.495	11.62
679.525	16.62
679.556	11.62
679.586	12.62
679.617	-0.38
679.647	4.62
679.678	6.62
679.708	-1.38
679.739	-7.38
679.769	16.62
679.8	0.62
679.83	17.62
679.861	14.62
679.891	-1.38
679.922	-18.38
679.952	-10.38
679.983	9.62
680.013	8.62
680.044	-9.38
680.074	5.62
680.105	10.62
680.135	6.62
680.165	19.62
680.196	32.62
680.226	29.62
680.257	11.62
680.287	16.62
680.318	-7.38
680.348	-11.38
680.379	3.62
680.409	7.62
680.439	-3.38
680.47	13.62
680.5	11.62
680.531	10.62
680.561	8.62
680.592	5.62
680.622	29.62
680.652	10.62
680.683	19.62
680.713	-3.38
680.744	-1.38
680.774	-1.38
680.804	8.62
680.835	0.62
680.865	-7.38
680.896	14.62
680.926	9.62
680.956	1.62
680.987	6.62
681.017	15.62
681.047	10.62
681.078	5.62
681.108	14.62
681.139	1.62
681.169	12.62
681.199	10.62
681.23	14.62
681.26	-2.38
681.29	-0.38
681.321	-10.38
681.351	0.62
681.381	-8.38
681.412	-0.38
681.442	13.62
681.472	8.62
681.503	-1.38
681.533	7.62
681.563	-4.38
681.594	5.62
681.624	6.62
681.654	-13.38
681.685	-6.38
681.715	17.62
681.745	-3.38
681.775	-10.38
681.806	9.62
681.836	7.62
681.866	-3.38
681.897	-0.38
681.927	-16.38
681.957	-19.38
681.987	1.62
682.018	-4.38
682.048	9.62
682.078	9.62
682.109	34.62
682.139	14.62
682.169	8.62
682.199	-0.38
682.23	-7.38
682.26	21.62
682.29	-11.38
682.32	11.62
682.351	-17.38
682.381	-10.38
682.411	9.62
682.441	2.62
682.472	-7.38
682.502	4.62
682.532	-6.38
682.562	10.62
682.592	13.62
682.623	1.62
682.653	-2.38
682.683	1.62
682.713	18.62
