Data from HighRes_H2_15_09_11_07_2024_HR4C61891__67__15-11-03-102.txt Node

Date: Thu Nov 07 15:11:03 EST 2024
User: crc00042
Spectrometer: HR4C6189
Trigger mode: 4
Integration Time (sec): 1.000000E-1
Scans to average: 1
Electric dark correction enabled: true
Nonlinearity correction enabled: false
Boxcar width: 0
XAxis mode: Wavelengths
Number of Pixels in Spectrum: 3648
>>>>>Begin Spectral Data<<<<<
639.567	-62.92
639.602	-62.92
639.636	-62.92
639.67	-47.92
639.704	-7.92
639.738	-3.92
639.773	8.08
639.807	-4.92
639.841	-21.92
639.875	9.08
639.909	4.08
639.943	-6.92
639.978	2.08
640.012	2.08
640.046	12.08
640.08	15.08
640.114	8.08
640.148	-22.92
640.182	-1.92
640.217	0.08
640.251	24.08
640.285	7.08
640.319	-6.92
640.353	-12.92
640.387	18.08
640.421	-7.92
640.455	-22.92
640.49	-5.92
640.524	-3.92
640.558	12.08
640.592	3.08
640.626	-7.92
640.66	5.08
640.694	-11.92
640.728	5.08
640.762	6.08
640.796	5.08
640.83	12.08
640.865	-4.92
640.899	1.08
640.933	4.08
640.967	11.08
641.001	-5.92
641.035	5.08
641.069	-8.92
641.103	-4.92
641.137	0.08
641.171	-0.92
641.205	0.08
641.239	1.08
641.273	12.08
641.307	9.08
641.341	-0.92
641.375	-12.92
641.409	-16.92
641.443	5.08
641.477	3.08
641.511	5.08
641.545	10.08
641.579	-11.92
641.614	7.08
641.648	1.08
641.682	-4.92
641.716	2.08
641.75	26.08
641.784	4.08
641.818	3.08
641.852	-6.92
641.886	-9.92
641.919	37.08
641.953	11.08
641.987	-28.92
642.021	-10.92
642.055	6.08
642.089	1.08
642.123	-5.92
642.157	10.08
642.191	-1.92
642.225	13.08
642.259	2.08
642.293	6.08
642.327	3.08
642.361	0.08
642.395	11.08
642.429	5.08
642.463	12.08
642.497	29.08
642.531	5.08
642.565	11.08
642.599	16.08
642.633	-14.92
642.666	22.08
642.7	14.08
642.734	11.08
642.768	-12.92
642.802	-4.92
642.836	6.08
642.87	-5.92
642.904	16.08
642.938	23.08
642.972	1.08
643.005	4.08
643.039	3.08
643.073	-7.92
643.107	1.08
643.141	9.08
643.175	7.08
643.209	0.08
643.243	-5.92
643.276	-10.92
643.31	-15.92
643.344	2.08
643.378	-12.92
643.412	29.08
643.446	11.08
643.48	-2.92
643.513	7.08
643.547	-0.92
643.581	-2.92
643.615	5.08
643.649	3.08
643.683	0.08
643.716	-0.92
643.75	2.08
643.784	-7.92
643.818	10.08
643.852	6.08
643.886	-6.92
643.919	9.08
643.953	14.08
643.987	-1.92
644.021	3.08
644.055	-1.92
644.088	6.08
644.122	-17.92
644.156	-6.92
644.19	-1.92
644.224	14.08
644.257	6.08
644.291	-9.92
644.325	4.08
644.359	-15.92
644.392	19.08
644.426	-7.92
644.46	-4.92
644.494	-5.92
644.527	-13.92
644.561	3.08
644.595	2.08
644.629	5.08
644.662	-14.92
644.696	23.08
644.73	16.08
644.764	4.08
644.797	-7.92
644.831	-0.92
644.865	-0.92
644.899	8.08
644.932	16.08
644.966	3.08
645	20.08
645.033	22.08
645.067	-7.92
645.101	6.08
645.135	0.08
645.168	3.08
645.202	2.08
645.236	0.08
645.269	6.08
645.303	-10.92
645.337	-10.92
645.37	-5.92
645.404	-3.92
645.438	6.08
645.471	-0.92
645.505	17.08
645.539	10.08
645.572	4.08
645.606	6.08
645.64	14.08
645.673	-1.92
645.707	27.08
645.741	6.08
645.774	9.08
645.808	6.08
645.842	-12.92
645.875	6.08
645.909	-1.92
645.943	14.08
645.976	-3.92
646.01	14.08
646.043	2.08
646.077	7.08
646.111	4.08
646.144	23.08
646.178	16.08
646.212	-14.92
646.245	4.08
646.279	11.08
646.312	0.08
646.346	17.08
646.38	-5.92
646.413	4.08
646.447	-6.92
646.48	-1.92
646.514	16.08
646.547	-2.92
646.581	7.08
646.615	-1.92
646.648	2.08
646.682	14.08
646.715	10.08
646.749	2.08
646.782	-13.92
646.816	-18.92
646.85	9.08
646.883	-4.92
646.917	17.08
646.95	14.08
646.984	14.08
647.017	11.08
647.051	2.08
647.084	7.08
647.118	-11.92
647.151	-3.92
647.185	-4.92
647.218	-20.92
647.252	-2.92
647.285	0.08
647.319	2.08
647.353	-5.92
647.386	11.08
647.42	2.08
647.453	8.08
647.487	-9.92
647.52	2.08
647.553	11.08
647.587	7.08
647.62	-12.92
647.654	15.08
647.687	6.08
647.721	9.08
647.754	10.08
647.788	6.08
647.821	-6.92
647.855	10.08
647.888	18.08
647.922	4.08
647.955	18.08
647.989	5.08
648.022	1.08
648.055	0.08
648.089	5.08
648.122	12.08
648.156	5.08
648.189	-7.92
648.223	0.08
648.256	17.08
648.29	15.08
648.323	-3.92
648.356	12.08
648.39	-2.92
648.423	-3.92
648.457	-8.92
648.49	1.08
648.523	-7.92
648.557	-4.92
648.59	-1.92
648.624	-1.92
648.657	4.08
648.69	6.08
648.724	4.08
648.757	22.08
648.791	8.08
648.824	21.08
648.857	26.08
648.891	13.08
648.924	17.08
648.957	16.08
648.991	-3.92
649.024	15.08
649.057	4.08
649.091	6.08
649.124	12.08
649.158	8.08
649.191	31.08
649.224	7.08
649.258	4.08
649.291	11.08
649.324	-0.92
649.358	8.08
649.391	6.08
649.424	5.08
649.458	1.08
649.491	-0.92
649.524	-2.92
649.557	-7.92
649.591	-20.92
649.624	14.08
649.657	1.08
649.691	9.08
649.724	3.08
649.757	3.08
649.791	-6.92
649.824	18.08
649.857	6.08
649.89	1.08
649.924	-5.92
649.957	-5.92
649.99	-7.92
650.023	-2.92
650.057	-7.92
650.09	20.08
650.123	-1.92
650.157	15.08
650.19	33.08
650.223	20.08
650.256	-9.92
650.29	-10.92
650.323	-7.92
650.356	17.08
650.389	-8.92
650.423	-5.92
650.456	-1.92
650.489	5.08
650.522	10.08
650.555	12.08
650.589	3.08
650.622	13.08
650.655	10.08
650.688	2.08
650.721	14.08
650.755	-9.92
650.788	4.08
650.821	-17.92
650.854	-5.92
650.887	-13.92
650.921	-26.92
650.954	4.08
650.987	-2.92
651.02	5.08
651.053	-7.92
651.087	-13.92
651.12	37.08
651.153	-0.92
651.186	1.08
651.219	-17.92
651.252	9.08
651.286	2.08
651.319	-2.92
651.352	8.08
651.385	4.08
651.418	4.08
651.451	3.08
651.484	2.08
651.518	-24.92
651.551	19.08
651.584	-7.92
651.617	12.08
651.65	16.08
651.683	5.08
651.716	-11.92
651.749	-7.92
651.783	-16.92
651.816	5.08
651.849	17.08
651.882	-3.92
651.915	-8.92
651.948	1.08
651.981	-6.92
652.014	-13.92
652.047	-22.92
652.08	-15.92
652.114	6.08
652.147	-1.92
652.18	7.08
652.213	9.08
652.246	3.08
652.279	10.08
652.312	10.08
652.345	-0.92
652.378	8.08
652.411	24.08
652.444	11.08
652.477	12.08
652.51	7.08
652.543	-3.92
652.576	8.08
652.609	-5.92
652.642	0.08
652.675	6.08
652.709	13.08
652.742	3.08
652.775	2.08
652.808	14.08
652.841	12.08
652.874	4.08
652.907	17.08
652.94	-5.92
652.973	-11.92
653.006	-7.92
653.039	-24.92
653.072	5.08
653.105	-5.92
653.138	-12.92
653.171	-13.92
653.204	-4.92
653.237	-5.92
653.27	-12.92
653.303	6.08
653.336	-1.92
653.368	-9.92
653.401	11.08
653.434	-3.92
653.467	12.08
653.5	-23.92
653.533	-10.92
653.566	2.08
653.599	5.08
653.632	5.08
653.665	8.08
653.698	0.08
653.731	-14.92
653.764	3.08
653.797	9.08
653.83	14.08
653.863	-9.92
653.896	-5.92
653.929	-10.92
653.961	0.08
653.994	-11.92
654.027	-18.92
654.06	5.08
654.093	6.08
654.126	12.08
654.159	-1.92
654.192	-9.92
654.225	-6.92
654.258	-8.92
654.29	-8.92
654.323	1.08
654.356	-0.92
654.389	-2.92
654.422	-0.92
654.455	5.08
654.488	11.08
654.521	-16.92
654.553	-18.92
654.586	8.08
654.619	-0.92
654.652	-9.92
654.685	1.08
654.718	-8.92
654.751	1.08
654.783	11.08
654.816	25.08
654.849	6.08
654.882	2.08
654.915	-3.92
654.948	5.08
654.98	-3.92
655.013	18.08
655.046	-2.92
655.079	4.08
655.112	6.08
655.144	-0.92
655.177	7.08
655.21	6.08
655.243	9.08
655.276	-3.92
655.308	8.08
655.341	-6.92
655.374	7.08
655.407	0.08
655.44	8.08
655.472	15.08
655.505	6.08
655.538	15.08
655.571	26.08
655.603	-0.92
655.636	7.08
655.669	8.08
655.702	22.08
655.734	4.08
655.767	13.08
655.8	16.08
655.833	11.08
655.865	18.08
655.898	22.08
655.931	29.08
655.964	44.08
655.996	47.08
656.029	62.08
656.062	51.08
656.095	70.08
656.127	67.08
656.16	102.08
656.193	115.08
656.225	170.08
656.258	261.08
656.291	494.08
656.324	1154.08
656.356	3398.08
656.389	7581.08
656.422	6013.08
656.454	2084.08
656.487	682.08
656.52	253.08
656.552	119.08
656.585	74.08
656.618	61.08
656.65	53.08
656.683	27.08
656.716	10.08
656.748	0.08
656.781	-3.92
656.814	6.08
656.846	22.08
656.879	-6.92
656.912	3.08
656.944	-0.92
656.977	-15.92
657.01	-16.92
657.042	10.08
657.075	7.08
657.108	-1.92
657.14	9.08
657.173	11.08
657.205	26.08
657.238	-5.92
657.271	-6.92
657.303	-24.92
657.336	-14.92
657.369	-1.92
657.401	9.08
657.434	12.08
657.466	12.08
657.499	7.08
657.532	-8.92
657.564	9.08
657.597	0.08
657.629	4.08
657.662	-3.92
657.694	-12.92
657.727	-15.92
657.76	-1.92
657.792	1.08
657.825	-15.92
657.857	-1.92
657.89	-9.92
657.922	13.08
657.955	-4.92
657.987	-8.92
658.02	19.08
658.053	6.08
658.085	2.08
658.118	3.08
658.15	6.08
658.183	18.08
658.215	7.08
658.248	-3.92
658.28	-6.92
658.313	24.08
658.345	4.08
658.378	12.08
658.41	18.08
658.443	-2.92
658.475	-7.92
658.508	-15.92
658.54	0.08
658.573	1.08
658.605	-2.92
658.638	0.08
658.67	4.08
658.703	2.08
658.735	-14.92
658.768	2.08
658.8	-12.92
658.833	17.08
658.865	-9.92
658.898	8.08
658.93	-7.92
658.963	6.08
658.995	-1.92
659.028	4.08
659.06	-0.92
659.092	1.08
659.125	1.08
659.157	11.08
659.19	-9.92
659.222	5.08
659.255	4.08
659.287	7.08
659.32	-2.92
659.352	-5.92
659.384	15.08
659.417	2.08
659.449	2.08
659.482	12.08
659.514	4.08
659.546	-1.92
659.579	-22.92
659.611	-10.92
659.644	-6.92
659.676	-12.92
659.708	-7.92
659.741	-0.92
659.773	-5.92
659.806	1.08
659.838	-8.92
659.87	-0.92
659.903	-16.92
659.935	3.08
659.967	13.08
660	0.08
660.032	-24.92
660.065	9.08
660.097	-9.92
660.129	6.08
660.162	-20.92
660.194	2.08
660.226	1.08
660.259	1.08
660.291	-10.92
660.323	2.08
660.356	0.08
660.388	-15.92
660.42	7.08
660.453	1.08
660.485	11.08
660.517	6.08
660.55	4.08
660.582	-10.92
660.614	11.08
660.647	-25.92
660.679	-21.92
660.711	11.08
660.743	-2.92
660.776	0.08
660.808	-1.92
660.84	-5.92
660.873	-5.92
660.905	11.08
660.937	-5.92
660.969	-12.92
661.002	3.08
661.034	18.08
661.066	2.08
661.099	-2.92
661.131	10.08
661.163	-1.92
661.195	-7.92
661.228	5.08
661.26	-10.92
661.292	-1.92
661.324	14.08
661.357	-3.92
661.389	10.08
661.421	-9.92
661.453	-2.92
661.485	4.08
661.518	-4.92
661.55	-5.92
661.582	-7.92
661.614	5.08
661.647	8.08
661.679	-10.92
661.711	3.08
661.743	-8.92
661.775	-0.92
661.808	18.08
661.84	-12.92
661.872	-4.92
661.904	-0.92
661.936	2.08
661.969	-22.92
662.001	-2.92
662.033	-9.92
662.065	-21.92
662.097	18.08
662.129	17.08
662.162	2.08
662.194	16.08
662.226	5.08
662.258	14.08
662.29	-7.92
662.322	-11.92
662.355	-11.92
662.387	7.08
662.419	11.08
662.451	6.08
662.483	-0.92
662.515	0.08
662.547	-16.92
662.58	-20.92
662.612	-13.92
662.644	-4.92
662.676	6.08
662.708	6.08
662.74	2.08
662.772	1.08
662.804	-4.92
662.836	1.08
662.869	-14.92
662.901	2.08
662.933	7.08
662.965	20.08
662.997	8.08
663.029	1.08
663.061	-1.92
663.093	2.08
663.125	12.08
663.157	12.08
663.189	3.08
663.221	18.08
663.254	3.08
663.286	-1.92
663.318	-13.92
663.35	-22.92
663.382	-15.92
663.414	7.08
663.446	-0.92
663.478	-5.92
663.51	22.08
663.542	-0.92
663.574	7.08
663.606	4.08
663.638	6.08
663.67	2.08
663.702	-6.92
663.734	-15.92
663.766	-1.92
663.798	-6.92
663.83	-3.92
663.862	3.08
663.894	11.08
663.926	1.08
663.958	16.08
663.99	3.08
664.022	-16.92
664.054	11.08
664.086	-1.92
664.118	-25.92
664.15	-4.92
664.182	-4.92
664.214	0.08
664.246	2.08
664.278	9.08
664.31	24.08
664.342	2.08
664.374	-2.92
664.406	5.08
664.438	-8.92
664.47	-2.92
664.502	-10.92
664.534	2.08
664.566	-7.92
664.598	5.08
664.63	-4.92
664.662	-5.92
664.693	6.08
664.725	10.08
664.757	-7.92
664.789	-15.92
664.821	13.08
664.853	22.08
664.885	-11.92
664.917	7.08
664.949	23.08
664.981	9.08
665.013	6.08
665.045	-14.92
665.076	-12.92
665.108	4.08
665.14	-16.92
665.172	-12.92
665.204	0.08
665.236	-4.92
665.268	5.08
665.3	-13.92
665.331	-17.92
665.363	-4.92
665.395	-10.92
665.427	-1.92
665.459	-5.92
665.491	-1.92
665.523	-3.92
665.555	-4.92
665.586	9.08
665.618	7.08
665.65	-9.92
665.682	11.08
665.714	9.08
665.746	-9.92
665.777	-4.92
665.809	1.08
665.841	-5.92
665.873	-8.92
665.905	-4.92
665.937	13.08
665.968	0.08
666	2.08
666.032	9.08
666.064	5.08
666.096	-0.92
666.127	11.08
666.159	7.08
666.191	8.08
666.223	-4.92
666.255	4.08
666.286	5.08
666.318	-2.92
666.35	14.08
666.382	3.08
666.413	-17.92
666.445	-19.92
666.477	-5.92
666.509	3.08
666.54	-4.92
666.572	-11.92
666.604	-2.92
666.636	5.08
666.667	2.08
666.699	10.08
666.731	-14.92
666.763	1.08
666.794	3.08
666.826	2.08
666.858	-8.92
666.89	8.08
666.921	-3.92
666.953	3.08
666.985	6.08
667.017	23.08
667.048	-5.92
667.08	1.08
667.112	1.08
667.143	-23.92
667.175	6.08
667.207	4.08
667.238	7.08
667.27	5.08
667.302	5.08
667.334	-1.92
667.365	12.08
667.397	3.08
667.429	0.08
667.46	12.08
667.492	7.08
667.524	-4.92
667.555	-10.92
667.587	1.08
667.619	-7.92
667.65	-8.92
667.682	8.08
667.714	17.08
667.745	2.08
667.777	5.08
667.808	6.08
667.84	-0.92
667.872	-5.92
667.903	2.08
667.935	-5.92
667.967	-8.92
667.998	-5.92
668.03	2.08
668.061	2.08
668.093	11.08
668.125	12.08
668.156	15.08
668.188	5.08
668.22	-4.92
668.251	10.08
668.283	7.08
668.314	11.08
668.346	-4.92
668.377	-2.92
668.409	-4.92
668.441	4.08
668.472	7.08
668.504	-0.92
668.535	12.08
668.567	0.08
668.599	-15.92
668.63	-10.92
668.662	-15.92
668.693	5.08
668.725	2.08
668.756	-3.92
668.788	-5.92
668.819	-7.92
668.851	-0.92
668.882	10.08
668.914	3.08
668.946	10.08
668.977	-4.92
669.009	-8.92
669.04	2.08
669.072	6.08
669.103	2.08
669.135	-12.92
669.166	4.08
669.198	10.08
669.229	-10.92
669.261	-0.92
669.292	3.08
669.324	10.08
669.355	1.08
669.387	-3.92
669.418	20.08
669.45	5.08
669.481	-1.92
669.513	3.08
669.544	7.08
669.576	2.08
669.607	22.08
669.639	14.08
669.67	-7.92
669.701	9.08
669.733	-12.92
669.764	4.08
669.796	-3.92
669.827	10.08
669.859	4.08
669.89	19.08
669.922	4.08
669.953	3.08
669.985	15.08
670.016	10.08
670.047	9.08
670.079	10.08
670.11	9.08
670.142	1.08
670.173	-2.92
670.204	-1.92
670.236	10.08
670.267	-18.92
670.299	7.08
670.33	1.08
670.362	5.08
670.393	-10.92
670.424	4.08
670.456	-9.92
670.487	1.08
670.518	-0.92
670.55	-9.92
670.581	-11.92
670.613	-5.92
670.644	-9.92
670.675	-5.92
670.707	8.08
670.738	10.08
670.769	-0.92
670.801	4.08
670.832	0.08
670.864	-8.92
670.895	0.08
670.926	-13.92
670.958	-8.92
670.989	9.08
671.02	6.08
671.052	-10.92
671.083	-14.92
671.114	-8.92
671.146	8.08
671.177	8.08
671.208	8.08
671.24	-12.92
671.271	-2.92
671.302	-1.92
671.333	-16.92
671.365	0.08
671.396	-17.92
671.427	-9.92
671.459	4.08
671.49	-1.92
671.521	-7.92
671.553	0.08
671.584	3.08
671.615	1.08
671.646	4.08
671.678	2.08
671.709	-8.92
671.74	2.08
671.771	-5.92
671.803	5.08
671.834	3.08
671.865	-7.92
671.896	-0.92
671.928	-6.92
671.959	-13.92
671.99	7.08
672.021	2.08
672.053	9.08
672.084	6.08
672.115	6.08
672.146	-8.92
672.178	-24.92
672.209	-18.92
672.24	-3.92
672.271	13.08
672.303	13.08
672.334	-8.92
672.365	-11.92
672.396	-4.92
672.427	-7.92
672.459	4.08
672.49	10.08
672.521	-13.92
672.552	10.08
672.583	-4.92
672.615	-5.92
672.646	6.08
672.677	-1.92
672.708	-7.92
672.739	-2.92
672.77	5.08
672.802	-9.92
672.833	-15.92
672.864	-3.92
672.895	-7.92
672.926	-13.92
672.957	-3.92
672.989	1.08
673.02	6.08
673.051	-13.92
673.082	5.08
673.113	4.08
673.144	0.08
673.175	-3.92
673.206	-17.92
673.238	0.08
673.269	-5.92
673.3	-9.92
673.331	21.08
673.362	-3.92
673.393	7.08
673.424	8.08
673.455	7.08
673.487	5.08
673.518	-3.92
673.549	10.08
673.58	-0.92
673.611	1.08
673.642	-21.92
673.673	-26.92
673.704	14.08
673.735	6.08
673.766	5.08
673.797	-5.92
673.828	1.08
673.86	-14.92
673.891	1.08
673.922	-20.92
673.953	-16.92
673.984	-10.92
674.015	-9.92
674.046	9.08
674.077	6.08
674.108	-20.92
674.139	-14.92
674.17	-12.92
674.201	-4.92
674.232	-8.92
674.263	-18.92
674.294	-22.92
674.325	-8.92
674.356	14.08
674.387	1.08
674.418	8.08
674.449	2.08
674.48	-17.92
674.511	2.08
674.542	0.08
674.573	-3.92
674.604	10.08
674.635	-0.92
674.666	7.08
674.697	-0.92
674.728	3.08
674.759	-3.92
674.79	-12.92
674.821	-21.92
674.852	-12.92
674.883	-12.92
674.914	4.08
674.945	-0.92
674.976	0.08
675.007	-4.92
675.038	-4.92
675.069	-14.92
675.1	1.08
675.131	7.08
675.162	-5.92
675.193	1.08
675.224	-10.92
675.254	4.08
675.285	-6.92
675.316	0.08
675.347	-6.92
675.378	-10.92
675.409	-1.92
675.44	-2.92
675.471	-17.92
675.502	-4.92
675.533	-4.92
675.564	8.08
675.595	-0.92
675.625	9.08
675.656	3.08
675.687	10.08
675.718	-14.92
675.749	-12.92
675.78	-28.92
675.811	-23.92
675.842	1.08
675.873	-9.92
675.903	-0.92
675.934	13.08
675.965	-16.92
675.996	-14.92
676.027	4.08
676.058	5.08
676.089	-9.92
676.119	-2.92
676.15	-0.92
676.181	0.08
676.212	1.08
676.243	12.08
676.274	-9.92
676.304	9.08
676.335	-12.92
676.366	2.08
676.397	0.08
676.428	1.08
676.459	-3.92
676.489	15.08
676.52	-1.92
676.551	0.08
676.582	-9.92
676.613	10.08
676.643	-5.92
676.674	6.08
676.705	8.08
676.736	-14.92
676.767	1.08
676.797	0.08
676.828	-10.92
676.859	-1.92
676.89	1.08
676.92	7.08
676.951	5.08
676.982	-8.92
677.013	-6.92
677.044	8.08
677.074	1.08
677.105	-9.92
677.136	-3.92
677.167	-13.92
677.197	-4.92
677.228	-8.92
677.259	-16.92
677.289	-11.92
677.32	-27.92
677.351	-5.92
677.382	-9.92
677.412	-17.92
677.443	5.08
677.474	2.08
677.505	-17.92
677.535	-14.92
677.566	-2.92
677.597	-8.92
677.627	-10.92
677.658	4.08
677.689	1.08
677.72	0.08
677.75	-10.92
677.781	2.08
677.812	8.08
677.842	12.08
677.873	5.08
677.904	-0.92
677.934	2.08
677.965	-6.92
677.996	-28.92
678.026	-4.92
678.057	6.08
678.088	-9.92
678.118	-1.92
678.149	-14.92
678.18	0.08
678.21	-1.92
678.241	-3.92
678.272	-5.92
678.302	-3.92
678.333	15.08
678.363	0.08
678.394	3.08
678.425	10.08
678.455	2.08
678.486	-0.92
678.517	6.08
678.547	-7.92
678.578	-4.92
678.608	-15.92
678.639	-1.92
678.67	11.08
678.7	-5.92
678.731	-17.92
678.761	-18.92
678.792	15.08
678.823	9.08
678.853	-4.92
678.884	-16.92
678.914	-1.92
678.945	-18.92
678.975	-2.92
679.006	4.08
679.037	-14.92
679.067	23.08
679.098	11.08
679.128	-6.92
679.159	-10.92
679.189	14.08
679.22	-9.92
679.25	5.08
679.281	-8.92
679.312	-1.92
679.342	6.08
679.373	20.08
679.403	9.08
679.434	-7.92
679.464	-2.92
679.495	1.08
679.525	0.08
679.556	-5.92
679.586	-0.92
679.617	-0.92
679.647	-0.92
679.678	1.08
679.708	-2.92
679.739	15.08
679.769	-5.92
679.8	-6.92
679.83	-1.92
679.861	2.08
679.891	1.08
679.922	-20.92
679.952	-4.92
679.983	3.08
680.013	2.08
680.044	-12.92
680.074	11.08
680.105	-1.92
680.135	0.08
680.165	15.08
680.196	-4.92
680.226	-3.92
680.257	1.08
680.287	2.08
680.318	-12.92
680.348	-3.92
680.379	29.08
680.409	-1.92
680.439	-9.92
680.47	5.08
680.5	-14.92
680.531	2.08
680.561	11.08
680.592	10.08
680.622	10.08
680.652	1.08
680.683	2.08
680.713	-7.92
680.744	-8.92
680.774	-3.92
680.804	20.08
680.835	4.08
680.865	-15.92
680.896	9.08
680.926	10.08
680.956	-2.92
680.987	1.08
681.017	-13.92
681.047	-14.92
681.078	-9.92
681.108	-15.92
681.139	-6.92
681.169	4.08
681.199	1.08
681.23	5.08
681.26	-4.92
681.29	2.08
681.321	8.08
681.351	1.08
681.381	-2.92
681.412	-9.92
681.442	3.08
681.472	12.08
681.503	-0.92
681.533	-6.92
681.563	-12.92
681.594	5.08
681.624	-1.92
681.654	-13.92
681.685	-7.92
681.715	9.08
681.745	-0.92
681.775	-13.92
681.806	-4.92
681.836	-19.92
681.866	-1.92
681.897	2.08
681.927	-0.92
681.957	-12.92
681.987	-4.92
682.018	-1.92
682.048	-13.92
682.078	-3.92
682.109	1.08
682.139	6.08
682.169	0.08
682.199	-18.92
682.23	-6.92
682.26	-4.92
682.29	6.08
682.32	-1.92
682.351	2.08
682.381	-5.92
682.411	-1.92
682.441	-8.92
682.472	-26.92
682.502	1.08
