Data from HighRes_H2_15_09_11_07_2024_HR4C61891__109__15-11-07-301.txt Node

Date: Thu Nov 07 15:11:07 EST 2024
User: crc00042
Spectrometer: HR4C6189
Trigger mode: 4
Integration Time (sec): 1.000000E-1
Scans to average: 1
Electric dark correction enabled: true
Nonlinearity correction enabled: false
Boxcar width: 0
XAxis mode: Wavelengths
Number of Pixels in Spectrum: 3648
>>>>>Begin Spectral Data<<<<<
639.567	-59.85
639.602	-59.85
639.636	-59.85
639.67	-53.85
639.704	-19.85
639.738	-7.85
639.773	27.15
639.807	-19.85
639.841	-3.85
639.875	11.15
639.909	-13.85
639.943	-13.85
639.978	1.15
640.012	7.15
640.046	11.15
640.08	-1.85
640.114	8.15
640.148	-4.85
640.182	-6.85
640.217	-7.85
640.251	11.15
640.285	7.15
640.319	-13.85
640.353	-0.85
640.387	-6.85
640.421	3.15
640.455	7.15
640.49	-1.85
640.524	5.15
640.558	8.15
640.592	5.15
640.626	-6.85
640.66	7.15
640.694	-5.85
640.728	5.15
640.762	5.15
640.796	21.15
640.83	28.15
640.865	-1.85
640.899	1.15
640.933	2.15
640.967	4.15
641.001	0.15
641.035	12.15
641.069	-5.85
641.103	-20.85
641.137	-3.85
641.171	-8.85
641.205	17.15
641.239	3.15
641.273	5.15
641.307	7.15
641.341	1.15
641.375	-11.85
641.409	-1.85
641.443	6.15
641.477	-2.85
641.511	-3.85
641.545	0.15
641.579	7.15
641.614	6.15
641.648	8.15
641.682	-18.85
641.716	0.15
641.75	10.15
641.784	-8.85
641.818	-5.85
641.852	-3.85
641.886	-5.85
641.919	25.15
641.953	-9.85
641.987	-2.85
642.021	-0.85
642.055	3.15
642.089	-14.85
642.123	3.15
642.157	-0.85
642.191	-0.85
642.225	19.15
642.259	9.15
642.293	7.15
642.327	4.15
642.361	4.15
642.395	-7.85
642.429	8.15
642.463	-0.85
642.497	5.15
642.531	-3.85
642.565	8.15
642.599	20.15
642.633	-9.85
642.666	15.15
642.7	19.15
642.734	6.15
642.768	-21.85
642.802	-14.85
642.836	11.15
642.87	2.15
642.904	15.15
642.938	10.15
642.972	-11.85
643.005	0.15
643.039	19.15
643.073	1.15
643.107	10.15
643.141	0.15
643.175	-4.85
643.209	-2.85
643.243	3.15
643.276	10.15
643.31	-5.85
643.344	-7.85
643.378	4.15
643.412	8.15
643.446	4.15
643.48	0.15
643.513	-1.85
643.547	3.15
643.581	-3.85
643.615	5.15
643.649	3.15
643.683	11.15
643.716	0.15
643.75	8.15
643.784	-12.85
643.818	19.15
643.852	-9.85
643.886	-6.85
643.919	4.15
643.953	-22.85
643.987	-1.85
644.021	19.15
644.055	22.15
644.088	1.15
644.122	-12.85
644.156	-5.85
644.19	-16.85
644.224	6.15
644.257	3.15
644.291	12.15
644.325	15.15
644.359	-11.85
644.392	20.15
644.426	16.15
644.46	8.15
644.494	11.15
644.527	6.15
644.561	-0.85
644.595	-5.85
644.629	12.15
644.662	-4.85
644.696	14.15
644.73	5.15
644.764	8.15
644.797	0.15
644.831	0.15
644.865	20.15
644.899	8.15
644.932	21.15
644.966	5.15
645	-4.85
645.033	8.15
645.067	-7.85
645.101	12.15
645.135	-6.85
645.168	-0.85
645.202	-17.85
645.236	-1.85
645.269	11.15
645.303	12.15
645.337	-13.85
645.37	-2.85
645.404	22.15
645.438	2.15
645.471	-10.85
645.505	1.15
645.539	-4.85
645.572	-16.85
645.606	0.15
645.64	-3.85
645.673	0.15
645.707	24.15
645.741	-1.85
645.774	-2.85
645.808	1.15
645.842	-3.85
645.875	0.15
645.909	-14.85
645.943	9.15
645.976	4.15
646.01	11.15
646.043	16.15
646.077	10.15
646.111	4.15
646.144	5.15
646.178	-1.85
646.212	-11.85
646.245	-5.85
646.279	13.15
646.312	13.15
646.346	11.15
646.38	0.15
646.413	1.15
646.447	-20.85
646.48	-8.85
646.514	1.15
646.547	-16.85
646.581	-8.85
646.615	4.15
646.648	-4.85
646.682	-0.85
646.715	7.15
646.749	13.15
646.782	5.15
646.816	-3.85
646.85	21.15
646.883	-8.85
646.917	2.15
646.95	2.15
646.984	10.15
647.017	-4.85
647.051	4.15
647.084	7.15
647.118	-1.85
647.151	-4.85
647.185	3.15
647.218	-18.85
647.252	14.15
647.285	-2.85
647.319	7.15
647.353	4.15
647.386	16.15
647.42	10.15
647.453	7.15
647.487	0.15
647.52	5.15
647.553	-10.85
647.587	-0.85
647.62	14.15
647.654	3.15
647.687	2.15
647.721	-3.85
647.754	1.15
647.788	3.15
647.821	-11.85
647.855	0.15
647.888	7.15
647.922	15.15
647.955	3.15
647.989	-5.85
648.022	-9.85
648.055	2.15
648.089	-7.85
648.122	32.15
648.156	3.15
648.189	-11.85
648.223	0.15
648.256	-6.85
648.29	-1.85
648.323	1.15
648.356	13.15
648.39	0.15
648.423	11.15
648.457	-5.85
648.49	15.15
648.523	11.15
648.557	-4.85
648.59	0.15
648.624	-3.85
648.657	8.15
648.69	15.15
648.724	9.15
648.757	23.15
648.791	5.15
648.824	15.15
648.857	25.15
648.891	8.15
648.924	16.15
648.957	11.15
648.991	-34.85
649.024	10.15
649.057	14.15
649.091	-16.85
649.124	9.15
649.158	8.15
649.191	26.15
649.224	-2.85
649.258	11.15
649.291	3.15
649.324	7.15
649.358	11.15
649.391	12.15
649.424	9.15
649.458	-1.85
649.491	-9.85
649.524	-4.85
649.557	-13.85
649.591	-33.85
649.624	12.15
649.657	-17.85
649.691	-1.85
649.724	8.15
649.757	5.15
649.791	-5.85
649.824	18.15
649.857	14.15
649.89	4.15
649.924	-7.85
649.957	-11.85
649.99	3.15
650.023	-5.85
650.057	-2.85
650.09	1.15
650.123	7.15
650.157	11.15
650.19	19.15
650.223	1.15
650.256	-8.85
650.29	-12.85
650.323	-10.85
650.356	1.15
650.389	-12.85
650.423	-8.85
650.456	4.15
650.489	-5.85
650.522	7.15
650.555	29.15
650.589	7.15
650.622	5.15
650.655	12.15
650.688	-8.85
650.721	6.15
650.755	0.15
650.788	13.15
650.821	5.15
650.854	6.15
650.887	0.15
650.921	11.15
650.954	-2.85
650.987	0.15
651.02	-19.85
651.053	-3.85
651.087	-3.85
651.12	21.15
651.153	17.15
651.186	-1.85
651.219	-5.85
651.252	1.15
651.286	-3.85
651.319	0.15
651.352	8.15
651.385	14.15
651.418	6.15
651.451	20.15
651.484	10.15
651.518	-3.85
651.551	25.15
651.584	5.15
651.617	18.15
651.65	-9.85
651.683	4.15
651.716	-8.85
651.749	-6.85
651.783	-5.85
651.816	4.15
651.849	11.15
651.882	0.15
651.915	2.15
651.948	12.15
651.981	2.15
652.014	-23.85
652.047	3.15
652.08	-13.85
652.114	-0.85
652.147	-1.85
652.18	-3.85
652.213	12.15
652.246	-8.85
652.279	-8.85
652.312	9.15
652.345	2.15
652.378	-5.85
652.411	11.15
652.444	17.15
652.477	3.15
652.51	-3.85
652.543	-14.85
652.576	5.15
652.609	-5.85
652.642	1.15
652.675	-1.85
652.709	18.15
652.742	-3.85
652.775	12.15
652.808	14.15
652.841	-15.85
652.874	-5.85
652.907	11.15
652.94	-1.85
652.973	-22.85
653.006	-0.85
653.039	12.15
653.072	1.15
653.105	-6.85
653.138	-7.85
653.171	-1.85
653.204	-2.85
653.237	10.15
653.27	-8.85
653.303	3.15
653.336	7.15
653.368	0.15
653.401	-6.85
653.434	-10.85
653.467	11.15
653.5	-1.85
653.533	-14.85
653.566	-5.85
653.599	2.15
653.632	12.15
653.665	5.15
653.698	-9.85
653.731	-6.85
653.764	8.15
653.797	-6.85
653.83	15.15
653.863	-3.85
653.896	-19.85
653.929	0.15
653.961	1.15
653.994	6.15
654.027	-9.85
654.06	2.15
654.093	5.15
654.126	2.15
654.159	2.15
654.192	13.15
654.225	4.15
654.258	4.15
654.29	3.15
654.323	-6.85
654.356	-5.85
654.389	3.15
654.422	-3.85
654.455	5.15
654.488	1.15
654.521	-22.85
654.553	-5.85
654.586	6.15
654.619	-5.85
654.652	3.15
654.685	24.15
654.718	5.15
654.751	8.15
654.783	12.15
654.816	11.15
654.849	3.15
654.882	-11.85
654.915	-5.85
654.948	3.15
654.98	3.15
655.013	-3.85
655.046	3.15
655.079	-4.85
655.112	2.15
655.144	0.15
655.177	9.15
655.21	33.15
655.243	10.15
655.276	-3.85
655.308	-4.85
655.341	-4.85
655.374	-0.85
655.407	6.15
655.44	-4.85
655.472	17.15
655.505	13.15
655.538	8.15
655.571	11.15
655.603	12.15
655.636	9.15
655.669	24.15
655.702	11.15
655.734	3.15
655.767	22.15
655.8	12.15
655.833	23.15
655.865	43.15
655.898	27.15
655.931	33.15
655.964	49.15
655.996	50.15
656.029	63.15
656.062	46.15
656.095	59.15
656.127	78.15
656.16	99.15
656.193	101.15
656.225	179.15
656.258	276.15
656.291	486.15
656.324	1073.15
656.356	3367.15
656.389	7535.15
656.422	6020.15
656.454	2027.15
656.487	670.15
656.52	249.15
656.552	115.15
656.585	82.15
656.618	61.15
656.65	37.15
656.683	6.15
656.716	13.15
656.748	25.15
656.781	8.15
656.814	-7.85
656.846	11.15
656.879	7.15
656.912	0.15
656.944	-19.85
656.977	-0.85
657.01	7.15
657.042	-0.85
657.075	14.15
657.108	-14.85
657.14	-7.85
657.173	8.15
657.205	24.15
657.238	4.15
657.271	15.15
657.303	-19.85
657.336	7.15
657.369	5.15
657.401	-7.85
657.434	6.15
657.466	10.15
657.499	7.15
657.532	7.15
657.564	11.15
657.597	8.15
657.629	17.15
657.662	13.15
657.694	14.15
657.727	-14.85
657.76	8.15
657.792	-11.85
657.825	-5.85
657.857	4.15
657.89	-1.85
657.922	5.15
657.955	4.15
657.987	2.15
658.02	10.15
658.053	2.15
658.085	-13.85
658.118	14.15
658.15	12.15
658.183	18.15
658.215	2.15
658.248	-13.85
658.28	-8.85
658.313	8.15
658.345	9.15
658.378	-8.85
658.41	2.15
658.443	-2.85
658.475	5.15
658.508	-7.85
658.54	8.15
658.573	11.15
658.605	1.15
658.638	-4.85
658.67	-6.85
658.703	-0.85
658.735	-12.85
658.768	0.15
658.8	-8.85
658.833	31.15
658.865	9.15
658.898	-1.85
658.93	4.15
658.963	-3.85
658.995	-19.85
659.028	-12.85
659.06	-4.85
659.092	2.15
659.125	5.15
659.157	14.15
659.19	-11.85
659.222	-6.85
659.255	-12.85
659.287	-4.85
659.32	0.15
659.352	8.15
659.384	4.15
659.417	-12.85
659.449	2.15
659.482	11.15
659.514	-10.85
659.546	4.15
659.579	9.15
659.611	7.15
659.644	-9.85
659.676	-5.85
659.708	3.15
659.741	7.15
659.773	5.15
659.806	-4.85
659.838	-0.85
659.87	-1.85
659.903	-9.85
659.935	5.15
659.967	-5.85
660	-11.85
660.032	-21.85
660.065	3.15
660.097	14.15
660.129	-8.85
660.162	-7.85
660.194	3.15
660.226	4.15
660.259	7.15
660.291	0.15
660.323	-4.85
660.356	13.15
660.388	-8.85
660.42	-1.85
660.453	13.15
660.485	20.15
660.517	16.15
660.55	12.15
660.582	14.15
660.614	11.15
660.647	3.15
660.679	-9.85
660.711	14.15
660.743	-5.85
660.776	-10.85
660.808	-2.85
660.84	-8.85
660.873	7.15
660.905	-2.85
660.937	0.15
660.969	-14.85
661.002	-3.85
661.034	14.15
661.066	10.15
661.099	-2.85
661.131	19.15
661.163	12.15
661.195	-7.85
661.228	12.15
661.26	-6.85
661.292	-8.85
661.324	16.15
661.357	10.15
661.389	1.15
661.421	14.15
661.453	4.15
661.485	2.15
661.518	-1.85
661.55	1.15
661.582	-16.85
661.614	0.15
661.647	4.15
661.679	-0.85
661.711	-0.85
661.743	-4.85
661.775	-3.85
661.808	13.15
661.84	-12.85
661.872	2.15
661.904	9.15
661.936	7.15
661.969	-17.85
662.001	-1.85
662.033	-13.85
662.065	2.15
662.097	23.15
662.129	-3.85
662.162	-18.85
662.194	17.15
662.226	15.15
662.258	19.15
662.29	22.15
662.322	-6.85
662.355	-21.85
662.387	23.15
662.419	7.15
662.451	16.15
662.483	27.15
662.515	3.15
662.547	-0.85
662.58	-2.85
662.612	-17.85
662.644	-2.85
662.676	-12.85
662.708	13.15
662.74	-1.85
662.772	1.15
662.804	4.15
662.836	20.15
662.869	-8.85
662.901	4.15
662.933	-2.85
662.965	5.15
662.997	3.15
663.029	-1.85
663.061	-13.85
663.093	7.15
663.125	0.15
663.157	-5.85
663.189	-2.85
663.221	13.15
663.254	-1.85
663.286	-7.85
663.318	-15.85
663.35	-0.85
663.382	-0.85
663.414	-2.85
663.446	7.15
663.478	7.15
663.51	22.15
663.542	-17.85
663.574	2.15
663.606	9.15
663.638	-4.85
663.67	-11.85
663.702	-14.85
663.734	-11.85
663.766	18.15
663.798	-9.85
663.83	-12.85
663.862	9.15
663.894	-2.85
663.926	-6.85
663.958	16.15
663.99	5.15
664.022	1.15
664.054	18.15
664.086	-8.85
664.118	-14.85
664.15	-1.85
664.182	4.15
664.214	6.15
664.246	9.15
664.278	7.15
664.31	14.15
664.342	11.15
664.374	4.15
664.406	11.15
664.438	-10.85
664.47	24.15
664.502	18.15
664.534	-12.85
664.566	-16.85
664.598	4.15
664.63	-14.85
664.662	3.15
664.693	-9.85
664.725	-12.85
664.757	-14.85
664.789	-12.85
664.821	-0.85
664.853	15.15
664.885	16.15
664.917	15.15
664.949	7.15
664.981	11.15
665.013	1.15
665.045	-10.85
665.076	-6.85
665.108	11.15
665.14	-12.85
665.172	3.15
665.204	9.15
665.236	-0.85
665.268	16.15
665.3	-9.85
665.331	-15.85
665.363	4.15
665.395	-4.85
665.427	-9.85
665.459	16.15
665.491	-6.85
665.523	-5.85
665.555	3.15
665.586	9.15
665.618	-13.85
665.65	-20.85
665.682	4.15
665.714	15.15
665.746	10.15
665.777	12.15
665.809	-14.85
665.841	-9.85
665.873	-25.85
665.905	-0.85
665.937	19.15
665.968	3.15
666	-2.85
666.032	-3.85
666.064	-0.85
666.096	-7.85
666.127	3.15
666.159	8.15
666.191	7.15
666.223	-7.85
666.255	11.15
666.286	12.15
666.318	0.15
666.35	25.15
666.382	-2.85
666.413	-18.85
666.445	-5.85
666.477	-0.85
666.509	-11.85
666.54	-0.85
666.572	-10.85
666.604	-6.85
666.636	-8.85
666.667	12.15
666.699	9.15
666.731	-2.85
666.763	-25.85
666.794	-1.85
666.826	4.15
666.858	-6.85
666.89	0.15
666.921	7.15
666.953	-4.85
666.985	23.15
667.017	20.15
667.048	7.15
667.08	-14.85
667.112	2.15
667.143	4.15
667.175	10.15
667.207	3.15
667.238	6.15
667.27	15.15
667.302	1.15
667.334	9.15
667.365	22.15
667.397	6.15
667.429	-1.85
667.46	6.15
667.492	2.15
667.524	3.15
667.555	-16.85
667.587	-7.85
667.619	2.15
667.65	-5.85
667.682	3.15
667.714	8.15
667.745	-2.85
667.777	-4.85
667.808	-3.85
667.84	6.15
667.872	-3.85
667.903	19.15
667.935	-8.85
667.967	5.15
667.998	-4.85
668.03	-4.85
668.061	1.15
668.093	3.15
668.125	-4.85
668.156	3.15
668.188	-14.85
668.22	-1.85
668.251	11.15
668.283	9.15
668.314	13.15
668.346	-11.85
668.377	-5.85
668.409	-4.85
668.441	14.15
668.472	0.15
668.504	-2.85
668.535	8.15
668.567	2.15
668.599	3.15
668.63	-6.85
668.662	11.15
668.693	11.15
668.725	2.15
668.756	4.15
668.788	-11.85
668.819	-5.85
668.851	-0.85
668.882	-7.85
668.914	-6.85
668.946	-9.85
668.977	-16.85
669.009	6.15
669.04	-16.85
669.072	-13.85
669.103	-0.85
669.135	-11.85
669.166	9.15
669.198	-14.85
669.229	4.15
669.261	-1.85
669.292	-10.85
669.324	16.15
669.355	4.15
669.387	-5.85
669.418	-5.85
669.45	-23.85
669.481	-2.85
669.513	13.15
669.544	1.15
669.576	-9.85
669.607	15.15
669.639	16.15
669.67	4.15
669.701	18.15
669.733	-8.85
669.764	-4.85
669.796	4.15
669.827	-4.85
669.859	-4.85
669.89	7.15
669.922	1.15
669.953	0.15
669.985	-7.85
670.016	-3.85
670.047	-6.85
670.079	0.15
670.11	14.15
670.142	0.15
670.173	-0.85
670.204	4.15
670.236	-13.85
670.267	-14.85
670.299	-0.85
670.33	-5.85
670.362	-8.85
670.393	-15.85
670.424	0.15
670.456	-8.85
670.487	-1.85
670.518	-10.85
670.55	-18.85
670.581	2.15
670.613	0.15
670.644	-22.85
670.675	-8.85
670.707	5.15
670.738	-0.85
670.769	5.15
670.801	6.15
670.832	10.15
670.864	-5.85
670.895	-10.85
670.926	-6.85
670.958	-5.85
670.989	-5.85
671.02	-7.85
671.052	-11.85
671.083	-16.85
671.114	0.15
671.146	8.15
671.177	4.15
671.208	-11.85
671.24	0.15
671.271	-6.85
671.302	-7.85
671.333	-5.85
671.365	-7.85
671.396	-0.85
671.427	-6.85
671.459	-1.85
671.49	10.15
671.521	17.15
671.553	0.15
671.584	17.15
671.615	-3.85
671.646	8.15
671.678	0.15
671.709	-11.85
671.74	-6.85
671.771	-10.85
671.803	-6.85
671.834	-5.85
671.865	2.15
671.896	-5.85
671.928	1.15
671.959	3.15
671.99	0.15
672.021	1.15
672.053	-14.85
672.084	4.15
672.115	4.15
672.146	7.15
672.178	-9.85
672.209	3.15
672.24	-1.85
672.271	3.15
672.303	0.15
672.334	-1.85
672.365	-7.85
672.396	9.15
672.427	-3.85
672.459	-0.85
672.49	16.15
672.521	7.15
672.552	4.15
672.583	5.15
672.615	5.15
672.646	14.15
672.677	-11.85
672.708	-16.85
672.739	-9.85
672.77	7.15
672.802	-0.85
672.833	-2.85
672.864	-3.85
672.895	0.15
672.926	-16.85
672.957	-31.85
672.989	1.15
673.02	2.15
673.051	-11.85
673.082	-3.85
673.113	-9.85
673.144	1.15
673.175	2.15
673.206	0.15
673.238	-6.85
673.269	-13.85
673.3	-8.85
673.331	6.15
673.362	0.15
673.393	3.15
673.424	-1.85
673.455	5.15
673.487	-2.85
673.518	19.15
673.549	17.15
673.58	-9.85
673.611	-5.85
673.642	-6.85
673.673	-11.85
673.704	5.15
673.735	-17.85
673.766	6.15
673.797	-8.85
673.828	-9.85
673.86	-19.85
673.891	-6.85
673.922	2.15
673.953	-14.85
673.984	3.15
674.015	11.15
674.046	-0.85
674.077	0.15
674.108	-8.85
674.139	6.15
674.17	-14.85
674.201	-3.85
674.232	0.15
674.263	-12.85
674.294	-11.85
674.325	-1.85
674.356	15.15
674.387	16.15
674.418	11.15
674.449	-6.85
674.48	-8.85
674.511	4.15
674.542	14.15
674.573	-9.85
674.604	2.15
674.635	7.15
674.666	-6.85
674.697	2.15
674.728	-1.85
674.759	-0.85
674.79	-12.85
674.821	-11.85
674.852	8.15
674.883	-13.85
674.914	-7.85
674.945	-8.85
674.976	0.15
675.007	2.15
675.038	-12.85
675.069	-24.85
675.1	-4.85
675.131	6.15
675.162	-9.85
675.193	6.15
675.224	-7.85
675.254	5.15
675.285	-2.85
675.316	5.15
675.347	-7.85
675.378	-21.85
675.409	-16.85
675.44	7.15
675.471	0.15
675.502	-10.85
675.533	5.15
675.564	-5.85
675.595	1.15
675.625	23.15
675.656	5.15
675.687	-0.85
675.718	-22.85
675.749	-8.85
675.78	6.15
675.811	-6.85
675.842	-2.85
675.873	4.15
675.903	-14.85
675.934	-10.85
675.965	-12.85
675.996	-21.85
676.027	3.15
676.058	9.15
676.089	-13.85
676.119	3.15
676.15	-1.85
676.181	10.15
676.212	-2.85
676.243	1.15
676.274	-4.85
676.304	22.15
676.335	-16.85
676.366	2.15
676.397	2.15
676.428	-6.85
676.459	7.15
676.489	28.15
676.52	9.15
676.551	11.15
676.582	3.15
676.613	1.15
676.643	9.15
676.674	27.15
676.705	4.15
676.736	0.15
676.767	10.15
676.797	3.15
676.828	-0.85
676.859	1.15
676.89	-6.85
676.92	-12.85
676.951	1.15
676.982	-3.85
677.013	-20.85
677.044	1.15
677.074	-4.85
677.105	-3.85
677.136	-1.85
677.167	-3.85
677.197	10.15
677.228	1.15
677.259	-10.85
677.289	5.15
677.32	-8.85
677.351	-4.85
677.382	-6.85
677.412	8.15
677.443	6.15
677.474	7.15
677.505	-5.85
677.535	-0.85
677.566	5.15
677.597	-0.85
677.627	-4.85
677.658	2.15
677.689	-0.85
677.72	-12.85
677.75	-6.85
677.781	3.15
677.812	-4.85
677.842	13.15
677.873	-3.85
677.904	-2.85
677.934	15.15
677.965	8.15
677.996	-20.85
678.026	-1.85
678.057	6.15
678.088	-8.85
678.118	-3.85
678.149	-20.85
678.18	-1.85
678.21	2.15
678.241	16.15
678.272	-7.85
678.302	7.15
678.333	12.15
678.363	8.15
678.394	6.15
678.425	0.15
678.455	22.15
678.486	5.15
678.517	6.15
678.547	0.15
678.578	-4.85
678.608	-8.85
678.639	7.15
678.67	4.15
678.7	-21.85
678.731	-5.85
678.761	0.15
678.792	3.15
678.823	8.15
678.853	13.15
678.884	10.15
678.914	24.15
678.945	5.15
678.975	7.15
679.006	14.15
679.037	0.15
679.067	18.15
679.098	11.15
679.128	-11.85
679.159	-0.85
679.189	-0.85
679.22	-16.85
679.25	2.15
679.281	10.15
679.312	3.15
679.342	-3.85
679.373	9.15
679.403	5.15
679.434	-4.85
679.464	4.15
679.495	1.15
679.525	3.15
679.556	-3.85
679.586	7.15
679.617	8.15
679.647	-2.85
679.678	-8.85
679.708	-10.85
679.739	8.15
679.769	4.15
679.8	7.15
679.83	-0.85
679.861	5.15
679.891	-5.85
679.922	-12.85
679.952	4.15
679.983	8.15
680.013	1.15
680.044	-10.85
680.074	6.15
680.105	8.15
680.135	0.15
680.165	21.15
680.196	11.15
680.226	1.15
680.257	7.15
680.287	-12.85
680.318	-6.85
680.348	-12.85
680.379	-11.85
680.409	-3.85
680.439	-3.85
680.47	1.15
680.5	-12.85
680.531	2.15
680.561	14.15
680.592	3.15
680.622	20.15
680.652	-6.85
680.683	10.15
680.713	0.15
680.744	3.15
680.774	4.15
680.804	19.15
680.835	-14.85
680.865	-6.85
680.896	30.15
680.926	17.15
680.956	3.15
680.987	-0.85
681.017	9.15
681.047	6.15
681.078	-0.85
681.108	17.15
681.139	11.15
681.169	8.15
681.199	-12.85
681.23	8.15
681.26	10.15
681.29	3.15
681.321	-10.85
681.351	4.15
681.381	-10.85
681.412	-9.85
681.442	-10.85
681.472	0.15
681.503	9.15
681.533	-12.85
681.563	1.15
681.594	6.15
681.624	13.15
681.654	-3.85
681.685	-7.85
681.715	0.15
681.745	-8.85
681.775	-5.85
681.806	8.15
681.836	10.15
681.866	-10.85
681.897	14.15
681.927	-7.85
681.957	-21.85
681.987	1.15
682.018	6.15
682.048	-12.85
682.078	1.15
682.109	16.15
682.139	30.15
682.169	6.15
682.199	-7.85
682.23	-6.85
682.26	6.15
682.29	-12.85
682.32	-4.85
682.351	0.15
682.381	2.15
682.411	10.15
682.441	-6.85
682.472	3.15
682.502	-6.85
682.532	-0.85
