Data from HighRes_H2_15_09_11_07_2024_HR4C61891__125__15-11-08-901.txt Node

Date: Thu Nov 07 15:11:08 EST 2024
User: crc00042
Spectrometer: HR4C6189
Trigger mode: 4
Integration Time (sec): 1.000000E-1
Scans to average: 1
Electric dark correction enabled: true
Nonlinearity correction enabled: false
Boxcar width: 0
XAxis mode: Wavelengths
Number of Pixels in Spectrum: 3648
>>>>>Begin Spectral Data<<<<<
639.567	-55.69
639.602	-55.69
639.636	-55.69
639.67	-32.69
639.704	-16.69
639.738	6.31
639.773	18.31
639.807	-27.69
639.841	0.31
639.875	-1.69
639.909	9.31
639.943	-11.69
639.978	-0.69
640.012	-20.69
640.046	12.31
640.08	4.31
640.114	12.31
640.148	-0.69
640.182	-10.69
640.217	5.31
640.251	11.31
640.285	25.31
640.319	-0.69
640.353	10.31
640.387	4.31
640.421	4.31
640.455	2.31
640.49	2.31
640.524	3.31
640.558	16.31
640.592	-1.69
640.626	10.31
640.66	8.31
640.694	-12.69
640.728	12.31
640.762	6.31
640.796	21.31
640.83	9.31
640.865	-3.69
640.899	10.31
640.933	2.31
640.967	-3.69
641.001	23.31
641.035	6.31
641.069	-11.69
641.103	-5.69
641.137	1.31
641.171	-5.69
641.205	16.31
641.239	3.31
641.273	27.31
641.307	7.31
641.341	10.31
641.375	10.31
641.409	-22.69
641.443	-5.69
641.477	11.31
641.511	13.31
641.545	-6.69
641.579	-11.69
641.614	-5.69
641.648	9.31
641.682	-6.69
641.716	22.31
641.75	23.31
641.784	-1.69
641.818	6.31
641.852	-2.69
641.886	-10.69
641.919	18.31
641.953	6.31
641.987	-20.69
642.021	-6.69
642.055	-0.69
642.089	7.31
642.123	2.31
642.157	-5.69
642.191	3.31
642.225	16.31
642.259	5.31
642.293	11.31
642.327	0.31
642.361	-9.69
642.395	25.31
642.429	7.31
642.463	34.31
642.497	8.31
642.531	19.31
642.565	-3.69
642.599	-6.69
642.633	-20.69
642.666	13.31
642.7	11.31
642.734	19.31
642.768	2.31
642.802	4.31
642.836	-8.69
642.87	6.31
642.904	12.31
642.938	10.31
642.972	-6.69
643.005	-3.69
643.039	-0.69
643.073	-11.69
643.107	20.31
643.141	15.31
643.175	13.31
643.209	25.31
643.243	5.31
643.276	12.31
643.31	-4.69
643.344	-9.69
643.378	-1.69
643.412	9.31
643.446	10.31
643.48	8.31
643.513	15.31
643.547	11.31
643.581	-3.69
643.615	11.31
643.649	-7.69
643.683	9.31
643.716	3.31
643.75	0.31
643.784	2.31
643.818	10.31
643.852	-1.69
643.886	9.31
643.919	10.31
643.953	3.31
643.987	6.31
644.021	5.31
644.055	18.31
644.088	6.31
644.122	-5.69
644.156	-9.69
644.19	2.31
644.224	1.31
644.257	14.31
644.291	16.31
644.325	8.31
644.359	-3.69
644.392	30.31
644.426	16.31
644.46	6.31
644.494	7.31
644.527	-5.69
644.561	-7.69
644.595	10.31
644.629	1.31
644.662	0.31
644.696	6.31
644.73	9.31
644.764	10.31
644.797	-3.69
644.831	-8.69
644.865	-2.69
644.899	-8.69
644.932	15.31
644.966	-1.69
645	10.31
645.033	13.31
645.067	15.31
645.101	-0.69
645.135	4.31
645.168	-0.69
645.202	-4.69
645.236	3.31
645.269	15.31
645.303	-0.69
645.337	6.31
645.37	3.31
645.404	8.31
645.438	-2.69
645.471	-4.69
645.505	13.31
645.539	11.31
645.572	4.31
645.606	-4.69
645.64	9.31
645.673	10.31
645.707	19.31
645.741	14.31
645.774	-13.69
645.808	3.31
645.842	5.31
645.875	3.31
645.909	4.31
645.943	3.31
645.976	-0.69
646.01	2.31
646.043	13.31
646.077	-7.69
646.111	4.31
646.144	6.31
646.178	9.31
646.212	-13.69
646.245	-21.69
646.279	19.31
646.312	11.31
646.346	19.31
646.38	8.31
646.413	10.31
646.447	16.31
646.48	-2.69
646.514	8.31
646.547	1.31
646.581	-0.69
646.615	6.31
646.648	-5.69
646.682	3.31
646.715	-1.69
646.749	15.31
646.782	4.31
646.816	-3.69
646.85	-5.69
646.883	-1.69
646.917	14.31
646.95	16.31
646.984	23.31
647.017	8.31
647.051	15.31
647.084	11.31
647.118	4.31
647.151	-8.69
647.185	6.31
647.218	-5.69
647.252	11.31
647.285	-7.69
647.319	-12.69
647.353	12.31
647.386	14.31
647.42	15.31
647.453	6.31
647.487	11.31
647.52	11.31
647.553	20.31
647.587	-3.69
647.62	4.31
647.654	-1.69
647.687	0.31
647.721	6.31
647.754	6.31
647.788	11.31
647.821	-22.69
647.855	22.31
647.888	14.31
647.922	23.31
647.955	28.31
647.989	3.31
648.022	8.31
648.055	6.31
648.089	-0.69
648.122	26.31
648.156	8.31
648.189	13.31
648.223	24.31
648.256	12.31
648.29	17.31
648.323	-1.69
648.356	14.31
648.39	24.31
648.423	-3.69
648.457	5.31
648.49	13.31
648.523	18.31
648.557	8.31
648.59	5.31
648.624	2.31
648.657	8.31
648.69	3.31
648.724	18.31
648.757	20.31
648.791	-2.69
648.824	5.31
648.857	24.31
648.891	15.31
648.924	20.31
648.957	12.31
648.991	-17.69
649.024	6.31
649.057	0.31
649.091	1.31
649.124	20.31
649.158	26.31
649.191	27.31
649.224	0.31
649.258	6.31
649.291	6.31
649.324	3.31
649.358	4.31
649.391	11.31
649.424	9.31
649.458	-5.69
649.491	-0.69
649.524	-5.69
649.557	-8.69
649.591	-13.69
649.624	21.31
649.657	-15.69
649.691	8.31
649.724	7.31
649.757	8.31
649.791	-2.69
649.824	13.31
649.857	11.31
649.89	0.31
649.924	-21.69
649.957	-11.69
649.99	-8.69
650.023	14.31
650.057	-6.69
650.09	2.31
650.123	3.31
650.157	8.31
650.19	12.31
650.223	-6.69
650.256	9.31
650.29	12.31
650.323	5.31
650.356	5.31
650.389	-16.69
650.423	-1.69
650.456	6.31
650.489	27.31
650.522	30.31
650.555	18.31
650.589	3.31
650.622	7.31
650.655	32.31
650.688	16.31
650.721	-1.69
650.755	-4.69
650.788	3.31
650.821	3.31
650.854	-1.69
650.887	-0.69
650.921	4.31
650.954	-10.69
650.987	-3.69
651.02	2.31
651.053	-8.69
651.087	-6.69
651.12	22.31
651.153	8.31
651.186	-5.69
651.219	-3.69
651.252	4.31
651.286	21.31
651.319	2.31
651.352	9.31
651.385	-0.69
651.418	6.31
651.451	21.31
651.484	8.31
651.518	9.31
651.551	6.31
651.584	-13.69
651.617	13.31
651.65	18.31
651.683	15.31
651.716	-8.69
651.749	-12.69
651.783	-14.69
651.816	-10.69
651.849	2.31
651.882	6.31
651.915	2.31
651.948	11.31
651.981	1.31
652.014	-13.69
652.047	-7.69
652.08	-0.69
652.114	6.31
652.147	-6.69
652.18	14.31
652.213	37.31
652.246	1.31
652.279	-10.69
652.312	2.31
652.345	0.31
652.378	-6.69
652.411	22.31
652.444	3.31
652.477	-1.69
652.51	4.31
652.543	-24.69
652.576	2.31
652.609	10.31
652.642	7.31
652.675	7.31
652.709	7.31
652.742	18.31
652.775	6.31
652.808	5.31
652.841	10.31
652.874	10.31
652.907	8.31
652.94	-7.69
652.973	-13.69
653.006	-5.69
653.039	13.31
653.072	0.31
653.105	1.31
653.138	-3.69
653.171	3.31
653.204	11.31
653.237	20.31
653.27	2.31
653.303	5.31
653.336	28.31
653.368	-2.69
653.401	-4.69
653.434	-3.69
653.467	7.31
653.5	-1.69
653.533	-9.69
653.566	-3.69
653.599	-2.69
653.632	2.31
653.665	11.31
653.698	1.31
653.731	-12.69
653.764	4.31
653.797	13.31
653.83	8.31
653.863	26.31
653.896	5.31
653.929	-4.69
653.961	11.31
653.994	22.31
654.027	12.31
654.06	10.31
654.093	24.31
654.126	13.31
654.159	-13.69
654.192	2.31
654.225	11.31
654.258	13.31
654.29	5.31
654.323	6.31
654.356	1.31
654.389	10.31
654.422	11.31
654.455	13.31
654.488	-4.69
654.521	3.31
654.553	1.31
654.586	0.31
654.619	6.31
654.652	19.31
654.685	11.31
654.718	12.31
654.751	14.31
654.783	3.31
654.816	11.31
654.849	5.31
654.882	-3.69
654.915	-10.69
654.948	5.31
654.98	-6.69
655.013	-0.69
655.046	3.31
655.079	-5.69
655.112	2.31
655.144	-9.69
655.177	8.31
655.21	5.31
655.243	23.31
655.276	-18.69
655.308	7.31
655.341	-17.69
655.374	-5.69
655.407	-5.69
655.44	1.31
655.472	20.31
655.505	9.31
655.538	-0.69
655.571	19.31
655.603	11.31
655.636	10.31
655.669	10.31
655.702	35.31
655.734	4.31
655.767	27.31
655.8	14.31
655.833	25.31
655.865	27.31
655.898	41.31
655.931	44.31
655.964	34.31
655.996	52.31
656.029	55.31
656.062	27.31
656.095	65.31
656.127	50.31
656.16	94.31
656.193	125.31
656.225	168.31
656.258	266.31
656.291	513.31
656.324	1140.31
656.356	3367.31
656.389	7553.31
656.422	6030.31
656.454	2058.31
656.487	694.31
656.52	262.31
656.552	138.31
656.585	74.31
656.618	73.31
656.65	46.31
656.683	26.31
656.716	21.31
656.748	20.31
656.781	12.31
656.814	14.31
656.846	22.31
656.879	2.31
656.912	17.31
656.944	-9.69
656.977	-19.69
657.01	17.31
657.042	5.31
657.075	15.31
657.108	0.31
657.14	10.31
657.173	14.31
657.205	36.31
657.238	22.31
657.271	3.31
657.303	-24.69
657.336	-6.69
657.369	2.31
657.401	3.31
657.434	3.31
657.466	1.31
657.499	-3.69
657.532	-1.69
657.564	12.31
657.597	5.31
657.629	18.31
657.662	12.31
657.694	-1.69
657.727	-10.69
657.76	8.31
657.792	-5.69
657.825	1.31
657.857	0.31
657.89	3.31
657.922	7.31
657.955	-0.69
657.987	10.31
658.02	4.31
658.053	14.31
658.085	10.31
658.118	11.31
658.15	8.31
658.183	19.31
658.215	0.31
658.248	10.31
658.28	-6.69
658.313	19.31
658.345	6.31
658.378	16.31
658.41	-7.69
658.443	28.31
658.475	-0.69
658.508	8.31
658.54	-11.69
658.573	-23.69
658.605	0.31
658.638	-1.69
658.67	10.31
658.703	0.31
658.735	-4.69
658.768	-6.69
658.8	-6.69
658.833	14.31
658.865	6.31
658.898	10.31
658.93	2.31
658.963	6.31
658.995	-5.69
659.028	-1.69
659.06	-0.69
659.092	21.31
659.125	-1.69
659.157	-2.69
659.19	-7.69
659.222	-6.69
659.255	13.31
659.287	6.31
659.32	14.31
659.352	11.31
659.384	10.31
659.417	-5.69
659.449	10.31
659.482	16.31
659.514	10.31
659.546	13.31
659.579	-7.69
659.611	15.31
659.644	7.31
659.676	-1.69
659.708	-7.69
659.741	-23.69
659.773	3.31
659.806	-5.69
659.838	-7.69
659.87	1.31
659.903	7.31
659.935	10.31
659.967	-5.69
660	2.31
660.032	-3.69
660.065	7.31
660.097	4.31
660.129	5.31
660.162	-9.69
660.194	-9.69
660.226	-0.69
660.259	23.31
660.291	8.31
660.323	-5.69
660.356	-1.69
660.388	11.31
660.42	-2.69
660.453	-0.69
660.485	2.31
660.517	12.31
660.55	27.31
660.582	3.31
660.614	19.31
660.647	-7.69
660.679	-22.69
660.711	-0.69
660.743	-11.69
660.776	-12.69
660.808	1.31
660.84	-15.69
660.873	1.31
660.905	-1.69
660.937	-17.69
660.969	2.31
661.002	-0.69
661.034	8.31
661.066	13.31
661.099	7.31
661.131	5.31
661.163	-4.69
661.195	-1.69
661.228	13.31
661.26	-6.69
661.292	-4.69
661.324	1.31
661.357	7.31
661.389	2.31
661.421	-4.69
661.453	-6.69
661.485	-2.69
661.518	-21.69
661.55	-18.69
661.582	-2.69
661.614	-9.69
661.647	-0.69
661.679	7.31
661.711	-1.69
661.743	-3.69
661.775	4.31
661.808	13.31
661.84	-17.69
661.872	4.31
661.904	-0.69
661.936	6.31
661.969	-12.69
662.001	-16.69
662.033	4.31
662.065	-5.69
662.097	-0.69
662.129	8.31
662.162	-1.69
662.194	8.31
662.226	2.31
662.258	-8.69
662.29	2.31
662.322	-2.69
662.355	-6.69
662.387	47.31
662.419	15.31
662.451	6.31
662.483	9.31
662.515	-4.69
662.547	-5.69
662.58	-9.69
662.612	-12.69
662.644	-4.69
662.676	20.31
662.708	20.31
662.74	-0.69
662.772	6.31
662.804	20.31
662.836	11.31
662.869	5.31
662.901	13.31
662.933	11.31
662.965	10.31
662.997	16.31
663.029	-14.69
663.061	-15.69
663.093	-2.69
663.125	-5.69
663.157	16.31
663.189	-2.69
663.221	-9.69
663.254	-7.69
663.286	10.31
663.318	-6.69
663.35	-9.69
663.382	10.31
663.414	4.31
663.446	-6.69
663.478	-5.69
663.51	39.31
663.542	-13.69
663.574	22.31
663.606	18.31
663.638	0.31
663.67	-2.69
663.702	2.31
663.734	-2.69
663.766	6.31
663.798	1.31
663.83	4.31
663.862	1.31
663.894	6.31
663.926	-6.69
663.958	-0.69
663.99	-6.69
664.022	-19.69
664.054	10.31
664.086	-13.69
664.118	-0.69
664.15	-9.69
664.182	-11.69
664.214	-4.69
664.246	3.31
664.278	9.31
664.31	14.31
664.342	-0.69
664.374	-1.69
664.406	9.31
664.438	-3.69
664.47	15.31
664.502	5.31
664.534	1.31
664.566	-17.69
664.598	9.31
664.63	-4.69
664.662	-0.69
664.693	-2.69
664.725	4.31
664.757	-18.69
664.789	-20.69
664.821	-0.69
664.853	6.31
664.885	7.31
664.917	-3.69
664.949	-3.69
664.981	10.31
665.013	0.31
665.045	-19.69
665.076	6.31
665.108	9.31
665.14	8.31
665.172	7.31
665.204	6.31
665.236	-11.69
665.268	12.31
665.3	-1.69
665.331	-12.69
665.363	0.31
665.395	2.31
665.427	-5.69
665.459	14.31
665.491	-3.69
665.523	-0.69
665.555	14.31
665.586	8.31
665.618	10.31
665.65	12.31
665.682	10.31
665.714	-2.69
665.746	-0.69
665.777	-20.69
665.809	-11.69
665.841	0.31
665.873	-0.69
665.905	6.31
665.937	11.31
665.968	0.31
666	-17.69
666.032	4.31
666.064	10.31
666.096	20.31
666.127	15.31
666.159	17.31
666.191	25.31
666.223	11.31
666.255	17.31
666.286	14.31
666.318	-0.69
666.35	9.31
666.382	-1.69
666.413	-7.69
666.445	-12.69
666.477	-21.69
666.509	-11.69
666.54	-1.69
666.572	10.31
666.604	-4.69
666.636	9.31
666.667	20.31
666.699	14.31
666.731	9.31
666.763	-0.69
666.794	5.31
666.826	14.31
666.858	-5.69
666.89	-1.69
666.921	9.31
666.953	4.31
666.985	5.31
667.017	25.31
667.048	26.31
667.08	2.31
667.112	-2.69
667.143	-9.69
667.175	24.31
667.207	23.31
667.238	10.31
667.27	4.31
667.302	1.31
667.334	14.31
667.365	13.31
667.397	13.31
667.429	2.31
667.46	15.31
667.492	16.31
667.524	6.31
667.555	-2.69
667.587	-4.69
667.619	-16.69
667.65	-13.69
667.682	-7.69
667.714	-3.69
667.745	12.31
667.777	3.31
667.808	7.31
667.84	0.31
667.872	2.31
667.903	11.31
667.935	1.31
667.967	13.31
667.998	6.31
668.03	3.31
668.061	14.31
668.093	4.31
668.125	16.31
668.156	3.31
668.188	-3.69
668.22	-16.69
668.251	4.31
668.283	14.31
668.314	23.31
668.346	-0.69
668.377	7.31
668.409	-2.69
668.441	11.31
668.472	0.31
668.504	7.31
668.535	10.31
668.567	10.31
668.599	-6.69
668.63	-9.69
668.662	-8.69
668.693	5.31
668.725	10.31
668.756	5.31
668.788	-0.69
668.819	-10.69
668.851	-8.69
668.882	-0.69
668.914	-1.69
668.946	2.31
668.977	-0.69
669.009	13.31
669.04	-0.69
669.072	9.31
669.103	-8.69
669.135	-3.69
669.166	1.31
669.198	-11.69
669.229	-3.69
669.261	6.31
669.292	6.31
669.324	9.31
669.355	6.31
669.387	-4.69
669.418	-6.69
669.45	8.31
669.481	-4.69
669.513	-3.69
669.544	10.31
669.576	5.31
669.607	25.31
669.639	16.31
669.67	-6.69
669.701	6.31
669.733	-6.69
669.764	-1.69
669.796	9.31
669.827	-4.69
669.859	-6.69
669.89	10.31
669.922	0.31
669.953	16.31
669.985	7.31
670.016	19.31
670.047	13.31
670.079	10.31
670.11	10.31
670.142	11.31
670.173	22.31
670.204	8.31
670.236	9.31
670.267	-1.69
670.299	9.31
670.33	6.31
670.362	18.31
670.393	-6.69
670.424	7.31
670.456	-25.69
670.487	-2.69
670.518	13.31
670.55	-1.69
670.581	3.31
670.613	5.31
670.644	5.31
670.675	-12.69
670.707	6.31
670.738	-2.69
670.769	8.31
670.801	-9.69
670.832	20.31
670.864	-10.69
670.895	7.31
670.926	13.31
670.958	3.31
670.989	0.31
671.02	-6.69
671.052	6.31
671.083	16.31
671.114	5.31
671.146	11.31
671.177	-5.69
671.208	1.31
671.24	-5.69
671.271	-6.69
671.302	4.31
671.333	-17.69
671.365	-11.69
671.396	-17.69
671.427	3.31
671.459	9.31
671.49	9.31
671.521	9.31
671.553	10.31
671.584	9.31
671.615	-4.69
671.646	4.31
671.678	10.31
671.709	-17.69
671.74	-17.69
671.771	-5.69
671.803	-4.69
671.834	7.31
671.865	-7.69
671.896	-3.69
671.928	4.31
671.959	-6.69
671.99	-1.69
672.021	8.31
672.053	-17.69
672.084	4.31
672.115	6.31
672.146	-1.69
672.178	-1.69
672.209	-8.69
672.24	-9.69
672.271	35.31
672.303	11.31
672.334	2.31
672.365	9.31
672.396	14.31
672.427	17.31
672.459	15.31
672.49	26.31
672.521	0.31
672.552	-1.69
672.583	8.31
672.615	-0.69
672.646	13.31
672.677	0.31
672.708	11.31
672.739	3.31
672.77	6.31
672.802	5.31
672.833	-16.69
672.864	-1.69
672.895	-0.69
672.926	-2.69
672.957	2.31
672.989	-12.69
673.02	-5.69
673.051	7.31
673.082	13.31
673.113	4.31
673.144	8.31
673.175	1.31
673.206	3.31
673.238	-2.69
673.269	-1.69
673.3	-6.69
673.331	-2.69
673.362	8.31
673.393	-7.69
673.424	2.31
673.455	14.31
673.487	2.31
673.518	16.31
673.549	12.31
673.58	8.31
673.611	13.31
673.642	2.31
673.673	-8.69
673.704	0.31
673.735	-1.69
673.766	6.31
673.797	1.31
673.828	3.31
673.86	-3.69
673.891	7.31
673.922	-8.69
673.953	-7.69
673.984	-0.69
674.015	18.31
674.046	5.31
674.077	9.31
674.108	-9.69
674.139	-2.69
674.17	-10.69
674.201	4.31
674.232	2.31
674.263	-6.69
674.294	-0.69
674.325	2.31
674.356	9.31
674.387	7.31
674.418	4.31
674.449	2.31
674.48	-5.69
674.511	1.31
674.542	0.31
674.573	5.31
674.604	17.31
674.635	2.31
674.666	15.31
674.697	-12.69
674.728	-1.69
674.759	5.31
674.79	-8.69
674.821	4.31
674.852	-5.69
674.883	-1.69
674.914	-7.69
674.945	-4.69
674.976	-2.69
675.007	-8.69
675.038	-6.69
675.069	6.31
675.1	5.31
675.131	-1.69
675.162	-7.69
675.193	-5.69
675.224	-11.69
675.254	13.31
675.285	2.31
675.316	18.31
675.347	-3.69
675.378	1.31
675.409	-13.69
675.44	10.31
675.471	9.31
675.502	-8.69
675.533	12.31
675.564	13.31
675.595	-0.69
675.625	32.31
675.656	16.31
675.687	19.31
675.718	-13.69
675.749	10.31
675.78	16.31
675.811	18.31
675.842	19.31
675.873	13.31
675.903	-7.69
675.934	5.31
675.965	-4.69
675.996	-11.69
676.027	7.31
676.058	10.31
676.089	-15.69
676.119	-5.69
676.15	3.31
676.181	-4.69
676.212	-14.69
676.243	-0.69
676.274	-8.69
676.304	25.31
676.335	-7.69
676.366	-0.69
676.397	-8.69
676.428	-8.69
676.459	5.31
676.489	1.31
676.52	8.31
676.551	3.31
676.582	5.31
676.613	9.31
676.643	6.31
676.674	10.31
676.705	3.31
676.736	2.31
676.767	19.31
676.797	6.31
676.828	10.31
676.859	5.31
676.89	8.31
676.92	3.31
676.951	2.31
676.982	4.31
677.013	0.31
677.044	23.31
677.074	-7.69
677.105	-8.69
677.136	12.31
677.167	-5.69
677.197	16.31
677.228	9.31
677.259	-2.69
677.289	4.31
677.32	-9.69
677.351	10.31
677.382	4.31
677.412	-10.69
677.443	24.31
677.474	20.31
677.505	-4.69
677.535	11.31
677.566	2.31
677.597	1.31
677.627	-9.69
677.658	-2.69
677.689	10.31
677.72	9.31
677.75	-0.69
677.781	6.31
677.812	2.31
677.842	-0.69
677.873	10.31
677.904	7.31
677.934	-2.69
677.965	-0.69
677.996	-18.69
678.026	13.31
678.057	8.31
678.088	2.31
678.118	19.31
678.149	-15.69
678.18	-1.69
678.21	-5.69
678.241	-5.69
678.272	-2.69
678.302	2.31
678.333	-4.69
678.363	-13.69
678.394	6.31
678.425	-4.69
678.455	11.31
678.486	16.31
678.517	3.31
678.547	1.31
678.578	7.31
678.608	-4.69
678.639	9.31
678.67	-3.69
678.7	2.31
678.731	-7.69
678.761	-0.69
678.792	15.31
678.823	9.31
678.853	10.31
678.884	-16.69
678.914	13.31
678.945	3.31
678.975	-3.69
679.006	2.31
679.037	-2.69
679.067	26.31
679.098	11.31
679.128	-9.69
679.159	3.31
679.189	2.31
679.22	-3.69
679.25	18.31
679.281	5.31
679.312	9.31
679.342	20.31
679.373	30.31
679.403	5.31
679.434	12.31
679.464	10.31
679.495	14.31
679.525	18.31
679.556	5.31
679.586	8.31
679.617	23.31
679.647	16.31
679.678	9.31
679.708	6.31
679.739	9.31
679.769	-4.69
679.8	-0.69
679.83	7.31
679.861	9.31
679.891	-9.69
679.922	-3.69
679.952	9.31
679.983	5.31
680.013	5.31
680.044	0.31
680.074	9.31
680.105	4.31
680.135	7.31
680.165	2.31
680.196	9.31
680.226	20.31
680.257	16.31
680.287	4.31
680.318	9.31
680.348	5.31
680.379	17.31
680.409	-3.69
680.439	11.31
680.47	4.31
680.5	5.31
680.531	-3.69
680.561	7.31
680.592	11.31
680.622	15.31
680.652	-0.69
680.683	28.31
680.713	-7.69
680.744	-19.69
680.774	-14.69
680.804	27.31
680.835	-0.69
680.865	2.31
680.896	6.31
680.926	14.31
680.956	3.31
680.987	-0.69
681.017	-4.69
681.047	-9.69
681.078	1.31
681.108	13.31
681.139	-12.69
681.169	11.31
681.199	6.31
681.23	15.31
681.26	-1.69
681.29	21.31
681.321	-13.69
681.351	-1.69
681.381	-18.69
681.412	21.31
681.442	14.31
681.472	18.31
681.503	7.31
681.533	12.31
681.563	3.31
681.594	-6.69
681.624	3.31
681.654	-6.69
681.685	6.31
681.715	2.31
681.745	7.31
681.775	-4.69
681.806	26.31
681.836	5.31
681.866	3.31
681.897	12.31
681.927	4.31
681.957	0.31
681.987	4.31
682.018	5.31
682.048	7.31
682.078	5.31
682.109	24.31
682.139	-9.69
682.169	-0.69
682.199	1.31
682.23	0.31
682.26	7.31
682.29	5.31
682.32	8.31
682.351	-2.69
682.381	10.31
682.411	7.31
682.441	-1.69
682.472	-1.69
682.502	3.31
682.532	-20.69
682.562	4.31
682.592	8.31
682.623	7.31
682.653	-8.69
