Data from LowRes_mercury_15_20_11_07_2024_HR4C61881__77__15-23-39-970.txt Node

Date: Thu Nov 07 15:23:39 EST 2024
User: crc00042
Spectrometer: HR4C6188
Trigger mode: 4
Integration Time (sec): 1.000000E-1
Scans to average: 1
Electric dark correction enabled: true
Nonlinearity correction enabled: false
Boxcar width: 0
XAxis mode: Wavelengths
Number of Pixels in Spectrum: 3648
>>>>>Begin Spectral Data<<<<<
245.66	-61.54
245.797	-61.54
245.934	-61.54
246.071	-74.54
246.208	3.46
246.344	1.46
246.481	-13.54
246.618	-5.54
246.755	11.46
246.892	11.46
247.029	-2.54
247.165	-10.54
247.302	13.46
247.439	-15.54
247.576	10.46
247.713	-12.54
247.849	36.46
247.986	-24.54
248.123	-0.54
248.26	-7.54
248.396	18.46
248.533	1.46
248.67	-5.54
248.806	12.46
248.943	-14.54
249.08	-3.54
249.216	-4.54
249.353	-12.54
249.49	3.46
249.626	0.46
249.763	2.46
249.9	-3.54
250.036	1.46
250.173	13.46
250.309	8.46
250.446	10.46
250.582	9.46
250.719	-3.54
250.856	-3.54
250.992	11.46
251.129	-0.54
251.265	-5.54
251.402	6.46
251.538	3.46
251.675	8.46
251.811	14.46
251.948	15.46
252.084	-2.54
252.221	-7.54
252.357	-8.54
252.493	32.46
252.63	2.46
252.766	9.46
252.903	-2.54
253.039	2.46
253.175	-2.54
253.312	12.46
253.448	-1.54
253.585	-14.54
253.721	16.46
253.857	3.46
253.994	10.46
254.13	-5.54
254.266	7.46
254.403	8.46
254.539	10.46
254.675	19.46
254.811	15.46
254.948	15.46
255.084	-4.54
255.22	-10.54
255.356	-7.54
255.493	29.46
255.629	17.46
255.765	2.46
255.901	0.46
256.037	1.46
256.174	20.46
256.31	-26.54
256.446	12.46
256.582	8.46
256.718	20.46
256.854	25.46
256.991	14.46
257.127	11.46
257.263	17.46
257.399	14.46
257.535	2.46
257.671	7.46
257.807	-1.54
257.943	-14.54
258.079	0.46
258.215	-2.54
258.351	9.46
258.487	-3.54
258.623	13.46
258.759	0.46
258.895	-7.54
259.031	18.46
259.167	7.46
259.303	27.46
259.439	-7.54
259.575	-8.54
259.711	-13.54
259.847	-9.54
259.983	10.46
260.119	2.46
260.255	6.46
260.391	-6.54
260.527	6.46
260.663	28.46
260.799	-2.54
260.934	7.46
261.07	-7.54
261.206	-29.54
261.342	-16.54
261.478	-2.54
261.614	14.46
261.749	7.46
261.885	-10.54
262.021	4.46
262.157	18.46
262.293	7.46
262.428	-6.54
262.564	1.46
262.7	-1.54
262.836	8.46
262.971	20.46
263.107	9.46
263.243	23.46
263.378	17.46
263.514	-26.54
263.65	3.46
263.785	-8.54
263.921	-4.54
264.057	10.46
264.192	23.46
264.328	13.46
264.464	-19.54
264.599	-3.54
264.735	4.46
264.871	4.46
265.006	0.46
265.142	6.46
265.277	10.46
265.413	11.46
265.548	27.46
265.684	21.46
265.819	15.46
265.955	-7.54
266.091	-20.54
266.226	-7.54
266.362	-17.54
266.497	1.46
266.633	-4.54
266.768	-6.54
266.903	28.46
267.039	24.46
267.174	31.46
267.31	-9.54
267.445	-0.54
267.581	5.46
267.716	22.46
267.851	13.46
267.987	10.46
268.122	14.46
268.258	-11.54
268.393	-16.54
268.528	-4.54
268.664	-17.54
268.799	8.46
268.934	0.46
269.07	10.46
269.205	8.46
269.34	30.46
269.476	8.46
269.611	0.46
269.746	14.46
269.881	15.46
270.017	30.46
270.152	5.46
270.287	-13.54
270.422	16.46
270.558	2.46
270.693	14.46
270.828	-2.54
270.963	5.46
271.098	4.46
271.234	6.46
271.369	6.46
271.504	7.46
271.639	-11.54
271.774	-10.54
271.909	-3.54
272.045	-18.54
272.18	18.46
272.315	-5.54
272.45	-7.54
272.585	3.46
272.72	2.46
272.855	16.46
272.99	17.46
273.125	9.46
273.26	-2.54
273.395	2.46
273.53	-4.54
273.665	18.46
273.8	5.46
273.935	8.46
274.07	14.46
274.205	7.46
274.34	10.46
274.475	10.46
274.61	25.46
274.745	0.46
274.88	30.46
275.015	-9.54
275.15	1.46
275.285	2.46
275.42	12.46
275.555	33.46
275.69	12.46
275.825	15.46
275.959	27.46
276.094	3.46
276.229	-5.54
276.364	-5.54
276.499	9.46
276.634	0.46
276.768	8.46
276.903	12.46
277.038	16.46
277.173	15.46
277.308	16.46
277.442	0.46
277.577	-8.54
277.712	9.46
277.847	-8.54
277.981	6.46
278.116	-8.54
278.251	8.46
278.386	-12.54
278.52	29.46
278.655	0.46
278.79	19.46
278.924	3.46
279.059	9.46
279.194	-10.54
279.328	33.46
279.463	3.46
279.598	29.46
279.732	13.46
279.867	15.46
280.001	6.46
280.136	0.46
280.271	23.46
280.405	3.46
280.54	-3.54
280.674	-6.54
280.809	17.46
280.943	2.46
281.078	2.46
281.213	19.46
281.347	-4.54
281.482	3.46
281.616	-12.54
281.751	-17.54
281.885	-14.54
282.02	6.46
282.154	6.46
282.288	-15.54
282.423	-3.54
282.557	-0.54
282.692	17.46
282.826	8.46
282.961	26.46
283.095	3.46
283.229	10.46
283.364	-1.54
283.498	-0.54
283.633	12.46
283.767	21.46
283.901	-3.54
284.036	8.46
284.17	15.46
284.304	-3.54
284.439	-5.54
284.573	4.46
284.707	0.46
284.842	-5.54
284.976	-3.54
285.11	-0.54
285.244	-5.54
285.379	53.46
285.513	-6.54
285.647	4.46
285.781	3.46
285.916	22.46
286.05	1.46
286.184	27.46
286.318	19.46
286.453	3.46
286.587	-1.54
286.721	4.46
286.855	6.46
286.989	20.46
287.123	4.46
287.258	-10.54
287.392	-5.54
287.526	-2.54
287.66	0.46
287.794	10.46
287.928	-11.54
288.062	15.46
288.196	3.46
288.33	25.46
288.464	32.46
288.598	9.46
288.733	3.46
288.867	38.46
289.001	2.46
289.135	1.46
289.269	-1.54
289.403	18.46
289.537	2.46
289.671	-0.54
289.805	-6.54
289.939	2.46
290.073	7.46
290.207	18.46
290.34	-1.54
290.474	29.46
290.608	16.46
290.742	19.46
290.876	13.46
291.01	11.46
291.144	30.46
291.278	33.46
291.412	5.46
291.546	-1.54
291.679	1.46
291.813	8.46
291.947	9.46
292.081	-1.54
292.215	11.46
292.349	11.46
292.482	0.46
292.616	11.46
292.75	2.46
292.884	21.46
293.018	18.46
293.151	-5.54
293.285	13.46
293.419	-1.54
293.553	10.46
293.686	-6.54
293.82	-1.54
293.954	26.46
294.088	27.46
294.221	-1.54
294.355	14.46
294.489	2.46
294.622	17.46
294.756	-4.54
294.89	9.46
295.023	12.46
295.157	-1.54
295.291	13.46
295.424	3.46
295.558	14.46
295.691	0.46
295.825	5.46
295.959	-0.54
296.092	-12.54
296.226	6.46
296.359	6.46
296.493	11.46
296.627	15.46
296.76	8.46
296.894	12.46
297.027	16.46
297.161	23.46
297.294	-10.54
297.428	15.46
297.561	30.46
297.695	-6.54
297.828	-4.54
297.962	14.46
298.095	-0.54
298.229	11.46
298.362	-8.54
298.495	-16.54
298.629	-22.54
298.762	0.46
298.896	3.46
299.029	-3.54
299.162	13.46
299.296	4.46
299.429	9.46
299.563	10.46
299.696	12.46
299.829	9.46
299.963	20.46
300.096	9.46
300.229	23.46
300.363	-7.54
300.496	20.46
300.629	-6.54
300.763	-17.54
300.896	-9.54
301.029	11.46
301.162	12.46
301.296	-5.54
301.429	21.46
301.562	-13.54
301.695	14.46
301.829	11.46
301.962	20.46
302.095	7.46
302.228	14.46
302.362	20.46
302.495	-8.54
302.628	1.46
302.761	-3.54
302.894	-4.54
303.027	18.46
303.161	5.46
303.294	1.46
303.427	8.46
303.56	9.46
303.693	1.46
303.826	6.46
303.959	-16.54
304.092	10.46
304.225	-7.54
304.359	2.46
304.492	2.46
304.625	2.46
304.758	12.46
304.891	-4.54
305.024	10.46
305.157	11.46
305.29	-18.54
305.423	-2.54
305.556	11.46
305.689	26.46
305.822	-0.54
305.955	21.46
306.088	5.46
306.221	18.46
306.354	7.46
306.487	23.46
306.62	10.46
306.752	3.46
306.885	16.46
307.018	22.46
307.151	14.46
307.284	29.46
307.417	16.46
307.55	27.46
307.683	-2.54
307.816	0.46
307.948	11.46
308.081	4.46
308.214	20.46
308.347	10.46
308.48	9.46
308.613	-15.54
308.745	15.46
308.878	2.46
309.011	20.46
309.144	4.46
309.277	7.46
309.409	26.46
309.542	-2.54
309.675	7.46
309.808	8.46
309.94	23.46
310.073	-7.54
310.206	4.46
310.339	2.46
310.471	4.46
310.604	12.46
310.737	-4.54
310.869	-3.54
311.002	5.46
311.135	6.46
311.267	3.46
311.4	8.46
311.533	27.46
311.665	7.46
311.798	11.46
311.93	5.46
312.063	46.46
312.196	39.46
312.328	91.46
312.461	44.46
312.593	35.46
312.726	56.46
312.859	87.46
312.991	172.46
313.124	50.46
313.256	19.46
313.389	11.46
313.521	12.46
313.654	-0.54
313.786	-4.54
313.919	7.46
314.051	-12.54
314.184	5.46
314.316	10.46
314.449	-16.54
314.581	1.46
314.714	-23.54
314.846	2.46
314.978	22.46
315.111	-0.54
315.243	2.46
315.376	19.46
315.508	20.46
315.641	1.46
315.773	9.46
315.905	7.46
316.038	11.46
316.17	-0.54
316.302	8.46
316.435	6.46
316.567	-8.54
316.699	33.46
316.832	-12.54
316.964	-3.54
317.096	3.46
317.229	-13.54
317.361	-19.54
317.493	1.46
317.625	9.46
317.758	22.46
317.89	13.46
318.022	-2.54
318.155	-3.54
318.287	0.46
318.419	2.46
318.551	10.46
318.683	10.46
318.816	-2.54
318.948	12.46
319.08	10.46
319.212	9.46
319.344	8.46
319.477	4.46
319.609	8.46
319.741	29.46
319.873	7.46
320.005	5.46
320.137	3.46
320.269	-5.54
320.401	-2.54
320.534	-6.54
320.666	1.46
320.798	7.46
320.93	2.46
321.062	4.46
321.194	6.46
321.326	12.46
321.458	10.46
321.59	11.46
321.722	-4.54
321.854	5.46
321.986	8.46
322.118	10.46
322.25	8.46
322.382	11.46
322.514	-15.54
322.646	-8.54
322.778	6.46
322.91	-13.54
323.042	4.46
323.174	9.46
323.306	-20.54
323.438	-10.54
323.57	8.46
323.702	9.46
323.834	1.46
323.966	-5.54
324.097	1.46
324.229	14.46
324.361	7.46
324.493	-0.54
324.625	8.46
324.757	15.46
324.889	0.46
325.021	2.46
325.152	17.46
325.284	33.46
325.416	-11.54
325.548	32.46
325.68	7.46
325.811	31.46
325.943	16.46
326.075	-12.54
326.207	21.46
326.339	41.46
326.47	16.46
326.602	20.46
326.734	19.46
326.866	17.46
326.997	1.46
327.129	8.46
327.261	-10.54
327.392	-8.54
327.524	11.46
327.656	-1.54
327.787	1.46
327.919	18.46
328.051	22.46
328.182	23.46
328.314	21.46
328.446	19.46
328.577	21.46
328.709	-0.54
328.841	-21.54
328.972	-22.54
329.104	-4.54
329.235	14.46
329.367	6.46
329.499	19.46
329.63	25.46
329.762	11.46
329.893	12.46
330.025	8.46
330.156	1.46
330.288	-1.54
330.419	35.46
330.551	15.46
330.683	8.46
330.814	9.46
330.946	7.46
331.077	-4.54
331.208	5.46
331.34	-4.54
331.471	-3.54
331.603	10.46
331.734	2.46
331.866	5.46
331.997	7.46
332.129	12.46
332.26	21.46
332.392	29.46
332.523	8.46
332.654	-16.54
332.786	-3.54
332.917	-5.54
333.048	24.46
333.18	18.46
333.311	-11.54
333.443	3.46
333.574	7.46
333.705	45.46
333.837	41.46
333.968	122.46
334.099	223.46
334.231	213.46
334.362	75.46
334.493	36.46
334.624	27.46
334.756	-0.54
334.887	30.46
335.018	3.46
335.15	5.46
335.281	18.46
335.412	11.46
335.543	19.46
335.675	10.46
335.806	1.46
335.937	9.46
336.068	16.46
336.199	35.46
336.331	4.46
336.462	10.46
336.593	28.46
336.724	23.46
336.855	22.46
336.986	13.46
337.118	21.46
337.249	9.46
337.38	2.46
337.511	4.46
337.642	32.46
337.773	18.46
337.904	-0.54
338.035	4.46
338.166	16.46
338.298	25.46
338.429	2.46
338.56	17.46
338.691	13.46
338.822	8.46
338.953	30.46
339.084	27.46
339.215	18.46
339.346	18.46
339.477	12.46
339.608	15.46
339.739	5.46
339.87	2.46
340.001	15.46
340.132	35.46
340.263	9.46
340.394	21.46
340.525	11.46
340.656	-3.54
340.787	0.46
340.918	37.46
341.049	7.46
341.179	32.46
341.31	23.46
341.441	19.46
341.572	25.46
341.703	22.46
341.834	14.46
341.965	39.46
342.096	11.46
342.227	15.46
342.357	5.46
342.488	20.46
342.619	19.46
342.75	21.46
342.881	-10.54
343.012	41.46
343.142	36.46
343.273	8.46
343.404	19.46
343.535	51.46
343.666	37.46
343.796	27.46
343.927	16.46
344.058	37.46
344.189	14.46
344.319	36.46
344.45	29.46
344.581	25.46
344.712	7.46
344.842	26.46
344.973	12.46
345.104	25.46
345.234	6.46
345.365	1.46
345.496	9.46
345.626	32.46
345.757	36.46
345.888	19.46
346.018	50.46
346.149	30.46
346.28	38.46
346.41	30.46
346.541	31.46
346.672	15.46
346.802	34.46
346.933	39.46
347.063	25.46
347.194	22.46
347.325	27.46
347.455	26.46
347.586	39.46
347.716	22.46
347.847	44.46
347.977	33.46
348.108	58.46
348.238	55.46
348.369	31.46
348.499	34.46
348.63	45.46
348.76	31.46
348.891	47.46
349.021	59.46
349.152	62.46
349.282	42.46
349.413	28.46
349.543	57.46
349.674	34.46
349.804	53.46
349.935	39.46
350.065	35.46
350.196	24.46
350.326	17.46
350.456	20.46
350.587	35.46
350.717	-1.54
350.848	19.46
350.978	27.46
351.108	1.46
351.239	40.46
351.369	10.46
351.499	11.46
351.63	36.46
351.76	29.46
351.89	15.46
352.021	20.46
352.151	18.46
352.281	19.46
352.412	39.46
352.542	44.46
352.672	27.46
352.803	26.46
352.933	30.46
353.063	18.46
353.193	19.46
353.324	16.46
353.454	25.46
353.584	49.46
353.714	14.46
353.845	18.46
353.975	17.46
354.105	26.46
354.235	12.46
354.365	35.46
354.496	20.46
354.626	37.46
354.756	32.46
354.886	24.46
355.016	39.46
355.146	26.46
355.277	25.46
355.407	18.46
355.537	19.46
355.667	42.46
355.797	26.46
355.927	31.46
356.057	27.46
356.187	10.46
356.318	26.46
356.448	19.46
356.578	30.46
356.708	26.46
356.838	22.46
356.968	20.46
357.098	27.46
357.228	20.46
357.358	33.46
357.488	21.46
357.618	57.46
357.748	52.46
357.878	24.46
358.008	15.46
358.138	15.46
358.268	4.46
358.398	33.46
358.528	12.46
358.658	28.46
358.788	20.46
358.918	29.46
359.048	20.46
359.178	34.46
359.308	37.46
359.438	40.46
359.568	41.46
359.698	42.46
359.827	33.46
359.957	21.46
360.087	22.46
360.217	28.46
360.347	44.46
360.477	45.46
360.607	9.46
360.737	42.46
360.866	20.46
360.996	17.46
361.126	29.46
361.256	59.46
361.386	43.46
361.516	59.46
361.645	16.46
361.775	41.46
361.905	10.46
362.035	49.46
362.165	32.46
362.294	58.46
362.424	40.46
362.554	53.46
362.684	42.46
362.813	48.46
362.943	82.46
363.073	54.46
363.203	63.46
363.332	70.46
363.462	99.46
363.592	120.46
363.721	144.46
363.851	173.46
363.981	200.46
364.111	255.46
364.24	308.46
364.37	500.46
364.5	860.46
364.629	1826.46
364.759	3900.46
364.888	6373.46
365.018	9483.46
365.148	14852.46
365.277	13019.46
365.407	4798.46
365.537	3110.46
365.666	4090.46
365.796	1858.46
365.925	809.46
366.055	762.46
366.184	1035.46
366.314	1412.46
366.444	2479.46
366.573	2136.46
366.703	634.46
366.832	215.46
366.962	120.46
367.091	92.46
367.221	61.46
367.35	60.46
367.48	88.46
367.609	50.46
367.739	66.46
367.868	25.46
367.998	42.46
368.127	45.46
368.257	54.46
368.386	57.46
368.516	44.46
368.645	55.46
368.775	58.46
368.904	37.46
369.033	18.46
369.163	15.46
369.292	41.46
369.422	25.46
369.551	45.46
369.68	41.46
369.81	49.46
369.939	42.46
370.069	65.46
370.198	51.46
370.327	20.46
370.457	39.46
370.586	58.46
370.715	38.46
370.845	30.46
370.974	43.46
371.103	44.46
371.233	53.46
371.362	66.46
371.491	33.46
371.621	44.46
371.75	60.46
371.879	27.46
372.008	38.46
372.138	63.46
372.267	70.46
372.396	49.46
372.525	24.46
372.655	42.46
372.784	35.46
372.913	27.46
373.042	29.46
373.172	35.46
373.301	-1.54
373.43	2.46
373.559	21.46
373.688	37.46
373.818	38.46
373.947	37.46
374.076	37.46
374.205	31.46
374.334	40.46
374.463	9.46
374.593	32.46
374.722	34.46
374.851	28.46
374.98	20.46
375.109	14.46
375.238	14.46
375.367	39.46
375.496	12.46
375.625	1.46
375.755	21.46
375.884	39.46
376.013	30.46
376.142	14.46
376.271	28.46
376.4	11.46
376.529	27.46
376.658	41.46
376.787	26.46
376.916	12.46
377.045	33.46
377.174	18.46
377.303	34.46
377.432	51.46
377.561	31.46
377.69	27.46
377.819	35.46
377.948	17.46
378.077	-0.54
378.206	4.46
378.335	3.46
378.464	10.46
378.593	12.46
378.722	0.46
378.851	22.46
378.98	35.46
379.108	22.46
379.237	10.46
379.366	-2.54
379.495	27.46
379.624	44.46
379.753	24.46
379.882	22.46
380.011	25.46
380.14	25.46
380.268	7.46
380.397	22.46
380.526	9.46
380.655	0.46
380.784	15.46
380.913	15.46
381.041	1.46
381.17	4.46
381.299	11.46
381.428	31.46
381.557	30.46
381.685	7.46
381.814	26.46
381.943	18.46
382.072	11.46
382.2	-1.54
382.329	6.46
382.458	35.46
382.587	41.46
382.715	32.46
382.844	38.46
382.973	35.46
383.102	12.46
383.23	3.46
383.359	4.46
383.488	34.46
383.616	12.46
383.745	14.46
383.874	25.46
384.003	23.46
384.131	14.46
384.26	11.46
384.389	44.46
384.517	16.46
384.646	2.46
384.774	23.46
384.903	37.46
385.032	45.46
385.16	29.46
385.289	23.46
385.418	22.46
385.546	26.46
385.675	31.46
385.803	16.46
385.932	23.46
386.06	17.46
386.189	35.46
386.318	21.46
386.446	3.46
386.575	42.46
386.703	36.46
386.832	40.46
386.96	23.46
387.089	52.46
387.217	18.46
387.346	-4.54
387.474	15.46
387.603	36.46
387.731	27.46
387.86	31.46
387.988	30.46
388.117	34.46
388.245	25.46
388.374	7.46
388.502	39.46
388.631	4.46
388.759	29.46
388.888	26.46
389.016	20.46
389.144	22.46
389.273	19.46
389.401	14.46
389.53	7.46
389.658	23.46
389.786	19.46
389.915	9.46
390.043	19.46
390.172	29.46
390.3	41.46
390.428	63.46
390.557	39.46
390.685	33.46
390.813	40.46
390.942	51.46
391.07	23.46
391.198	11.46
391.327	1.46
391.455	10.46
391.583	26.46
391.712	40.46
391.84	26.46
391.968	22.46
392.096	19.46
392.225	19.46
392.353	43.46
392.481	27.46
392.609	37.46
392.738	18.46
392.866	33.46
392.994	15.46
393.122	30.46
393.251	40.46
393.379	-1.54
393.507	3.46
393.635	25.46
393.764	28.46
393.892	29.46
394.02	19.46
394.148	11.46
394.276	31.46
394.404	39.46
394.533	28.46
394.661	37.46
394.789	46.46
394.917	52.46
395.045	36.46
395.173	20.46
395.302	33.46
395.43	28.46
395.558	31.46
395.686	49.46
395.814	29.46
395.942	33.46
396.07	42.46
396.198	22.46
396.326	49.46
396.454	61.46
396.582	47.46
396.711	25.46
396.839	36.46
396.967	35.46
397.095	22.46
397.223	31.46
397.351	41.46
397.479	26.46
397.607	18.46
397.735	43.46
397.863	64.46
397.991	42.46
398.119	23.46
398.247	25.46
398.375	50.46
398.503	48.46
398.631	44.46
398.759	72.46
398.887	50.46
399.015	59.46
399.143	61.46
399.271	72.46
399.399	68.46
399.526	77.46
399.654	86.46
399.782	77.46
399.91	111.46
400.038	91.46
400.166	66.46
400.294	81.46
400.422	88.46
400.55	106.46
400.678	89.46
400.805	136.46
400.933	121.46
401.061	133.46
401.189	107.46
401.317	144.46
401.445	106.46
401.573	84.46
401.7	65.46
401.828	53.46
401.956	48.46
402.084	42.46
402.212	51.46
402.34	42.46
402.467	44.46
402.595	38.46
402.723	52.46
402.851	75.46
402.978	59.46
403.106	98.46
403.234	83.46
403.362	128.46
403.489	142.46
403.617	144.46
403.745	202.46
403.873	282.46
404	574.46
404.128	1486.46
404.256	3940.46
404.384	5165.46
404.511	5511.46
404.639	7323.46
404.767	11500.46
404.894	14664.46
405.022	4953.46
405.15	1294.46
405.277	418.46
405.405	246.46
405.533	118.46
405.66	124.46
405.788	62.46
405.916	70.46
406.043	44.46
406.171	59.46
406.299	63.46
406.426	76.46
406.554	58.46
406.681	72.46
406.809	48.46
406.937	61.46
407.064	65.46
407.192	138.46
407.319	307.46
407.447	521.46
407.574	535.46
407.702	631.46
407.83	872.46
407.957	1584.46
408.085	934.46
408.212	276.46
408.34	103.46
408.467	56.46
408.595	50.46
408.722	55.46
408.85	48.46
408.977	32.46
409.105	32.46
409.232	34.46
409.36	18.46
409.487	41.46
409.615	40.46
409.742	44.46
409.87	30.46
409.997	45.46
410.125	34.46
410.252	55.46
410.379	30.46
410.507	51.46
410.634	23.46
410.762	24.46
410.889	35.46
411.017	26.46
411.144	45.46
411.271	26.46
411.399	39.46
411.526	36.46
411.653	48.46
411.781	38.46
411.908	37.46
412.036	23.46
412.163	23.46
412.29	22.46
412.418	28.46
412.545	22.46
412.672	19.46
412.8	48.46
412.927	47.46
413.054	53.46
413.182	55.46
413.309	27.46
413.436	15.46
413.564	23.46
413.691	37.46
413.818	47.46
413.945	12.46
414.073	23.46
414.2	25.46
414.327	27.46
414.454	39.46
414.582	25.46
414.709	11.46
414.836	16.46
414.963	24.46
415.091	35.46
415.218	30.46
415.345	10.46
415.472	18.46
415.6	19.46
415.727	40.46
415.854	33.46
415.981	27.46
416.108	43.46
416.236	16.46
416.363	48.46
416.49	24.46
416.617	40.46
416.744	38.46
416.871	44.46
416.998	32.46
417.126	27.46
417.253	32.46
417.38	34.46
417.507	35.46
417.634	28.46
417.761	40.46
417.888	48.46
418.015	35.46
418.143	29.46
418.27	50.46
418.397	25.46
418.524	41.46
418.651	28.46
418.778	46.46
418.905	64.46
419.032	42.46
419.159	48.46
419.286	67.46
