Data from LowRes_mercury_15_20_11_07_2024_HR4C61881__14__15-23-33-671.txt Node

Date: Thu Nov 07 15:23:33 EST 2024
User: crc00042
Spectrometer: HR4C6188
Trigger mode: 4
Integration Time (sec): 1.000000E-1
Scans to average: 1
Electric dark correction enabled: true
Nonlinearity correction enabled: false
Boxcar width: 0
XAxis mode: Wavelengths
Number of Pixels in Spectrum: 3648
>>>>>Begin Spectral Data<<<<<
245.66	-61.62
245.797	-61.62
245.934	-61.62
246.071	-72.62
246.208	-3.62
246.344	-10.62
246.481	-9.62
246.618	-8.62
246.755	12.38
246.892	9.38
247.029	-3.62
247.165	-14.62
247.302	18.38
247.439	-7.62
247.576	19.38
247.713	-3.62
247.849	15.38
247.986	-16.62
248.123	4.38
248.26	-4.62
248.396	27.38
248.533	12.38
248.67	2.38
248.806	0.38
248.943	-8.62
249.08	12.38
249.216	-0.62
249.353	3.38
249.49	1.38
249.626	26.38
249.763	18.38
249.9	-7.62
250.036	2.38
250.173	16.38
250.309	4.38
250.446	6.38
250.582	-5.62
250.719	-24.62
250.856	-1.62
250.992	8.38
251.129	9.38
251.265	2.38
251.402	-8.62
251.538	-6.62
251.675	-20.62
251.811	-1.62
251.948	16.38
252.084	11.38
252.221	1.38
252.357	1.38
252.493	21.38
252.63	0.38
252.766	8.38
252.903	9.38
253.039	14.38
253.175	-7.62
253.312	3.38
253.448	-3.62
253.585	-7.62
253.721	-5.62
253.857	12.38
253.994	9.38
254.13	-0.62
254.266	6.38
254.403	-11.62
254.539	5.38
254.675	27.38
254.811	-1.62
254.948	18.38
255.084	-1.62
255.22	-1.62
255.356	9.38
255.493	9.38
255.629	13.38
255.765	27.38
255.901	16.38
256.037	8.38
256.174	21.38
256.31	-5.62
256.446	-9.62
256.582	-2.62
256.718	15.38
256.854	22.38
256.991	13.38
257.127	31.38
257.263	5.38
257.399	15.38
257.535	-1.62
257.671	0.38
257.807	-7.62
257.943	-9.62
258.079	-12.62
258.215	-13.62
258.351	24.38
258.487	8.38
258.623	21.38
258.759	-4.62
258.895	-1.62
259.031	14.38
259.167	-0.62
259.303	15.38
259.439	10.38
259.575	3.38
259.711	-5.62
259.847	4.38
259.983	10.38
260.119	-9.62
260.255	-0.62
260.391	21.38
260.527	20.38
260.663	20.38
260.799	8.38
260.934	4.38
261.07	-0.62
261.206	11.38
261.342	2.38
261.478	-2.62
261.614	9.38
261.749	5.38
261.885	4.38
262.021	-4.62
262.157	12.38
262.293	17.38
262.428	-1.62
262.564	-16.62
262.7	25.38
262.836	6.38
262.971	21.38
263.107	5.38
263.243	20.38
263.378	1.38
263.514	-5.62
263.65	2.38
263.785	-12.62
263.921	-7.62
264.057	-7.62
264.192	14.38
264.328	21.38
264.464	6.38
264.599	5.38
264.735	31.38
264.871	23.38
265.006	-6.62
265.142	9.38
265.277	18.38
265.413	20.38
265.548	36.38
265.684	22.38
265.819	-2.62
265.955	11.38
266.091	-6.62
266.226	2.38
266.362	-15.62
266.497	-10.62
266.633	-5.62
266.768	1.38
266.903	13.38
267.039	19.38
267.174	0.38
267.31	-0.62
267.445	6.38
267.581	-0.62
267.716	17.38
267.851	7.38
267.987	10.38
268.122	32.38
268.258	2.38
268.393	-1.62
268.528	8.38
268.664	-3.62
268.799	-5.62
268.934	18.38
269.07	-10.62
269.205	1.38
269.34	22.38
269.476	14.38
269.611	4.38
269.746	23.38
269.881	2.38
270.017	11.38
270.152	3.38
270.287	5.38
270.422	27.38
270.558	1.38
270.693	21.38
270.828	18.38
270.963	24.38
271.098	6.38
271.234	4.38
271.369	23.38
271.504	22.38
271.639	-7.62
271.774	18.38
271.909	5.38
272.045	-18.62
272.18	7.38
272.315	14.38
272.45	8.38
272.585	10.38
272.72	8.38
272.855	-6.62
272.99	33.38
273.125	2.38
273.26	-15.62
273.395	-8.62
273.53	10.38
273.665	10.38
273.8	19.38
273.935	-0.62
274.07	1.38
274.205	20.38
274.34	1.38
274.475	-2.62
274.61	25.38
274.745	8.38
274.88	20.38
275.015	-13.62
275.15	3.38
275.285	17.38
275.42	4.38
275.555	9.38
275.69	19.38
275.825	4.38
275.959	5.38
276.094	-7.62
276.229	14.38
276.364	9.38
276.499	0.38
276.634	3.38
276.768	4.38
276.903	-9.62
277.038	14.38
277.173	19.38
277.308	-1.62
277.442	-3.62
277.577	-7.62
277.712	12.38
277.847	15.38
277.981	16.38
278.116	-12.62
278.251	5.38
278.386	4.38
278.52	-1.62
278.655	2.38
278.79	12.38
278.924	4.38
279.059	14.38
279.194	-5.62
279.328	27.38
279.463	15.38
279.598	17.38
279.732	-0.62
279.867	17.38
280.001	11.38
280.136	8.38
280.271	30.38
280.405	22.38
280.54	18.38
280.674	5.38
280.809	12.38
280.943	3.38
281.078	-1.62
281.213	20.38
281.347	13.38
281.482	0.38
281.616	-11.62
281.751	20.38
281.885	-3.62
282.02	-5.62
282.154	3.38
282.288	-11.62
282.423	-12.62
282.557	-9.62
282.692	8.38
282.826	17.38
282.961	14.38
283.095	0.38
283.229	-6.62
283.364	-16.62
283.498	-2.62
283.633	26.38
283.767	3.38
283.901	13.38
284.036	6.38
284.17	2.38
284.304	3.38
284.439	-1.62
284.573	-2.62
284.707	15.38
284.842	-5.62
284.976	-1.62
285.11	-4.62
285.244	8.38
285.379	36.38
285.513	1.38
285.647	11.38
285.781	13.38
285.916	18.38
286.05	19.38
286.184	43.38
286.318	20.38
286.453	9.38
286.587	-10.62
286.721	17.38
286.855	10.38
286.989	29.38
287.123	1.38
287.258	12.38
287.392	-5.62
287.526	8.38
287.66	4.38
287.794	8.38
287.928	5.38
288.062	-1.62
288.196	21.38
288.33	8.38
288.464	27.38
288.598	21.38
288.733	8.38
288.867	19.38
289.001	7.38
289.135	7.38
289.269	-0.62
289.403	2.38
289.537	1.38
289.671	15.38
289.805	1.38
289.939	16.38
290.073	8.38
290.207	12.38
290.34	2.38
290.474	26.38
290.608	14.38
290.742	-0.62
290.876	-1.62
291.01	-6.62
291.144	23.38
291.278	7.38
291.412	26.38
291.546	-3.62
291.679	7.38
291.813	12.38
291.947	20.38
292.081	-2.62
292.215	0.38
292.349	3.38
292.482	7.38
292.616	-3.62
292.75	14.38
292.884	16.38
293.018	8.38
293.151	-17.62
293.285	13.38
293.419	-17.62
293.553	-0.62
293.686	10.38
293.82	26.38
293.954	10.38
294.088	40.38
294.221	2.38
294.355	8.38
294.489	11.38
294.622	5.38
294.756	19.38
294.89	2.38
295.023	27.38
295.157	9.38
295.291	20.38
295.424	28.38
295.558	17.38
295.691	-4.62
295.825	0.38
295.959	5.38
296.092	6.38
296.226	-7.62
296.359	8.38
296.493	2.38
296.627	13.38
296.76	5.38
296.894	6.38
297.027	14.38
297.161	4.38
297.294	-6.62
297.428	1.38
297.561	18.38
297.695	-8.62
297.828	7.38
297.962	-1.62
298.095	7.38
298.229	20.38
298.362	6.38
298.495	-6.62
298.629	6.38
298.762	12.38
298.896	1.38
299.029	-9.62
299.162	3.38
299.296	11.38
299.429	4.38
299.563	16.38
299.696	14.38
299.829	19.38
299.963	25.38
300.096	11.38
300.229	12.38
300.363	11.38
300.496	17.38
300.629	0.38
300.763	-2.62
300.896	-14.62
301.029	15.38
301.162	15.38
301.296	-3.62
301.429	14.38
301.562	-7.62
301.695	22.38
301.829	-7.62
301.962	29.38
302.095	9.38
302.228	4.38
302.362	3.38
302.495	0.38
302.628	3.38
302.761	10.38
302.894	3.38
303.027	20.38
303.161	2.38
303.294	-9.62
303.427	22.38
303.56	3.38
303.693	9.38
303.826	-10.62
303.959	8.38
304.092	1.38
304.225	-6.62
304.359	5.38
304.492	-4.62
304.625	12.38
304.758	13.38
304.891	-1.62
305.024	4.38
305.157	-2.62
305.29	-10.62
305.423	-2.62
305.556	17.38
305.689	27.38
305.822	2.38
305.955	-13.62
306.088	-1.62
306.221	14.38
306.354	-8.62
306.487	-0.62
306.62	-2.62
306.752	20.38
306.885	15.38
307.018	0.38
307.151	17.38
307.284	10.38
307.417	-5.62
307.55	5.38
307.683	16.38
307.816	29.38
307.948	13.38
308.081	7.38
308.214	10.38
308.347	35.38
308.48	-1.62
308.613	-15.62
308.745	16.38
308.878	14.38
309.011	17.38
309.144	2.38
309.277	-2.62
309.409	25.38
309.542	20.38
309.675	18.38
309.808	11.38
309.94	9.38
310.073	5.38
310.206	9.38
310.339	6.38
310.471	-3.62
310.604	28.38
310.737	-2.62
310.869	2.38
311.002	-0.62
311.135	9.38
311.267	-20.62
311.4	14.38
311.533	33.38
311.665	-0.62
311.798	7.38
311.93	20.38
312.063	28.38
312.196	45.38
312.328	74.38
312.461	53.38
312.593	18.38
312.726	51.38
312.859	115.38
312.991	176.38
313.124	62.38
313.256	26.38
313.389	1.38
313.521	10.38
313.654	8.38
313.786	-0.62
313.919	-2.62
314.051	-7.62
314.184	21.38
314.316	18.38
314.449	-13.62
314.581	3.38
314.714	11.38
314.846	11.38
314.978	-24.62
315.111	-4.62
315.243	4.38
315.376	20.38
315.508	21.38
315.641	5.38
315.773	18.38
315.905	17.38
316.038	-17.62
316.17	15.38
316.302	15.38
316.435	13.38
316.567	14.38
316.699	28.38
316.832	5.38
316.964	8.38
317.096	-18.62
317.229	-10.62
317.361	-15.62
317.493	5.38
317.625	-5.62
317.758	18.38
317.89	28.38
318.022	32.38
318.155	2.38
318.287	3.38
318.419	-6.62
318.551	8.38
318.683	0.38
318.816	-7.62
318.948	16.38
319.08	-13.62
319.212	8.38
319.344	24.38
319.477	5.38
319.609	25.38
319.741	32.38
319.873	-5.62
320.005	8.38
320.137	-9.62
320.269	25.38
320.401	1.38
320.534	-3.62
320.666	-12.62
320.798	-0.62
320.93	2.38
321.062	-7.62
321.194	1.38
321.326	11.38
321.458	9.38
321.59	20.38
321.722	2.38
321.854	-11.62
321.986	12.38
322.118	10.38
322.25	-8.62
322.382	31.38
322.514	-3.62
322.646	-2.62
322.778	16.38
322.91	10.38
323.042	-3.62
323.174	0.38
323.306	-3.62
323.438	-9.62
323.57	17.38
323.702	-1.62
323.834	3.38
323.966	-9.62
324.097	-8.62
324.229	18.38
324.361	17.38
324.493	6.38
324.625	-5.62
324.757	13.38
324.889	-8.62
325.021	8.38
325.152	17.38
325.284	1.38
325.416	-10.62
325.548	23.38
325.68	11.38
325.811	34.38
325.943	16.38
326.075	-0.62
326.207	18.38
326.339	7.38
326.47	5.38
326.602	17.38
326.734	29.38
326.866	31.38
326.997	-13.62
327.129	-10.62
327.261	5.38
327.392	2.38
327.524	4.38
327.656	-6.62
327.787	14.38
327.919	15.38
328.051	18.38
328.182	22.38
328.314	32.38
328.446	15.38
328.577	29.38
328.709	21.38
328.841	-15.62
328.972	0.38
329.104	-5.62
329.235	-4.62
329.367	1.38
329.499	-2.62
329.63	19.38
329.762	12.38
329.893	20.38
330.025	10.38
330.156	0.38
330.288	10.38
330.419	18.38
330.551	19.38
330.683	35.38
330.814	7.38
330.946	21.38
331.077	-0.62
331.208	0.38
331.34	9.38
331.471	-3.62
331.603	-4.62
331.734	-15.62
331.866	4.38
331.997	21.38
332.129	19.38
332.26	13.38
332.392	25.38
332.523	2.38
332.654	5.38
332.786	-13.62
332.917	11.38
333.048	-3.62
333.18	14.38
333.311	17.38
333.443	13.38
333.574	22.38
333.705	46.38
333.837	50.38
333.968	124.38
334.099	227.38
334.231	201.38
334.362	70.38
334.493	36.38
334.624	35.38
334.756	16.38
334.887	19.38
335.018	19.38
335.15	28.38
335.281	23.38
335.412	27.38
335.543	16.38
335.675	10.38
335.806	2.38
335.937	7.38
336.068	12.38
336.199	25.38
336.331	-2.62
336.462	3.38
336.593	22.38
336.724	-9.62
336.855	0.38
336.986	15.38
337.118	23.38
337.249	21.38
337.38	14.38
337.511	-0.62
337.642	16.38
337.773	7.38
337.904	0.38
338.035	7.38
338.166	-10.62
338.298	28.38
338.429	-5.62
338.56	16.38
338.691	12.38
338.822	17.38
338.953	26.38
339.084	32.38
339.215	25.38
339.346	0.38
339.477	14.38
339.608	14.38
339.739	-4.62
339.87	-0.62
340.001	9.38
340.132	26.38
340.263	18.38
340.394	22.38
340.525	8.38
340.656	-6.62
340.787	15.38
340.918	45.38
341.049	15.38
341.179	14.38
341.31	17.38
341.441	14.38
341.572	11.38
341.703	20.38
341.834	4.38
341.965	18.38
342.096	-3.62
342.227	26.38
342.357	13.38
342.488	23.38
342.619	22.38
342.75	23.38
342.881	0.38
343.012	12.38
343.142	33.38
343.273	5.38
343.404	26.38
343.535	52.38
343.666	43.38
343.796	24.38
343.927	22.38
344.058	26.38
344.189	45.38
344.319	34.38
344.45	28.38
344.581	10.38
344.712	4.38
344.842	23.38
344.973	20.38
345.104	29.38
345.234	28.38
345.365	19.38
345.496	28.38
345.626	32.38
345.757	45.38
345.888	15.38
346.018	35.38
346.149	29.38
346.28	45.38
346.41	31.38
346.541	46.38
346.672	28.38
346.802	19.38
346.933	27.38
347.063	14.38
347.194	41.38
347.325	24.38
347.455	46.38
347.586	32.38
347.716	43.38
347.847	48.38
347.977	51.38
348.108	37.38
348.238	57.38
348.369	38.38
348.499	48.38
348.63	51.38
348.76	54.38
348.891	42.38
349.021	51.38
349.152	60.38
349.282	56.38
349.413	32.38
349.543	64.38
349.674	38.38
349.804	52.38
349.935	31.38
350.065	24.38
350.196	18.38
350.326	31.38
350.456	3.38
350.587	34.38
350.717	18.38
350.848	31.38
350.978	39.38
351.108	5.38
351.239	30.38
351.369	29.38
351.499	40.38
351.63	21.38
351.76	30.38
351.89	24.38
352.021	29.38
352.151	42.38
352.281	24.38
352.412	35.38
352.542	29.38
352.672	19.38
352.803	24.38
352.933	30.38
353.063	43.38
353.193	22.38
353.324	24.38
353.454	39.38
353.584	53.38
353.714	17.38
353.845	24.38
353.975	7.38
354.105	23.38
354.235	32.38
354.365	24.38
354.496	37.38
354.626	37.38
354.756	40.38
354.886	21.38
355.016	26.38
355.146	22.38
355.277	17.38
355.407	30.38
355.537	22.38
355.667	38.38
355.797	29.38
355.927	31.38
356.057	35.38
356.187	32.38
356.318	25.38
356.448	30.38
356.578	30.38
356.708	36.38
356.838	28.38
356.968	24.38
357.098	20.38
357.228	23.38
357.358	29.38
357.488	23.38
357.618	54.38
357.748	44.38
357.878	39.38
358.008	36.38
358.138	21.38
358.268	22.38
358.398	49.38
358.528	15.38
358.658	30.38
358.788	32.38
358.918	29.38
359.048	40.38
359.178	40.38
359.308	47.38
359.438	46.38
359.568	44.38
359.698	37.38
359.827	29.38
359.957	34.38
360.087	28.38
360.217	18.38
360.347	23.38
360.477	36.38
360.607	25.38
360.737	36.38
360.866	36.38
360.996	18.38
361.126	12.38
361.256	38.38
361.386	45.38
361.516	35.38
361.645	19.38
361.775	37.38
361.905	12.38
362.035	50.38
362.165	50.38
362.294	60.38
362.424	66.38
362.554	55.38
362.684	34.38
362.813	41.38
362.943	47.38
363.073	59.38
363.203	64.38
363.332	58.38
363.462	87.38
363.592	117.38
363.721	136.38
363.851	161.38
363.981	201.38
364.111	247.38
364.24	330.38
364.37	510.38
364.5	851.38
364.629	1837.38
364.759	3893.38
364.888	6362.38
365.018	9523.38
365.148	14882.38
365.277	13193.38
365.407	4854.38
365.537	3177.38
365.666	4120.38
365.796	1877.38
365.925	842.38
366.055	776.38
366.184	1090.38
366.314	1451.38
366.444	2529.38
366.573	2174.38
366.703	670.38
366.832	218.38
366.962	117.38
367.091	92.38
367.221	91.38
367.35	60.38
367.48	98.38
367.609	46.38
367.739	57.38
367.868	40.38
367.998	57.38
368.127	46.38
368.257	69.38
368.386	52.38
368.516	48.38
368.645	33.38
368.775	70.38
368.904	35.38
369.033	37.38
369.163	17.38
369.292	60.38
369.422	38.38
369.551	61.38
369.68	53.38
369.81	59.38
369.939	35.38
370.069	63.38
370.198	52.38
370.327	36.38
370.457	38.38
370.586	34.38
370.715	36.38
370.845	37.38
370.974	36.38
371.103	41.38
371.233	65.38
371.362	54.38
371.491	38.38
371.621	64.38
371.75	42.38
371.879	45.38
372.008	59.38
372.138	58.38
372.267	81.38
372.396	56.38
372.525	52.38
372.655	38.38
372.784	32.38
372.913	27.38
373.042	42.38
373.172	55.38
373.301	10.38
373.43	-2.62
373.559	16.38
373.688	37.38
373.818	29.38
373.947	28.38
374.076	23.38
374.205	27.38
374.334	24.38
374.463	-3.62
374.593	20.38
374.722	40.38
374.851	21.38
374.98	14.38
375.109	25.38
375.238	36.38
375.367	22.38
375.496	9.38
375.625	8.38
375.755	15.38
375.884	40.38
376.013	43.38
376.142	24.38
376.271	29.38
376.4	18.38
376.529	24.38
376.658	33.38
376.787	22.38
376.916	37.38
377.045	21.38
377.174	29.38
377.303	41.38
377.432	40.38
377.561	33.38
377.69	14.38
377.819	35.38
377.948	19.38
378.077	27.38
378.206	-1.62
378.335	17.38
378.464	14.38
378.593	28.38
378.722	3.38
378.851	26.38
378.98	31.38
379.108	20.38
379.237	8.38
379.366	20.38
379.495	17.38
379.624	48.38
379.753	6.38
379.882	15.38
380.011	19.38
380.14	10.38
380.268	22.38
380.397	7.38
380.526	34.38
380.655	19.38
380.784	-3.62
380.913	19.38
381.041	14.38
381.17	10.38
381.299	-1.62
381.428	19.38
381.557	39.38
381.685	17.38
381.814	20.38
381.943	25.38
382.072	8.38
382.2	10.38
382.329	16.38
382.458	42.38
382.587	11.38
382.715	30.38
382.844	26.38
382.973	19.38
383.102	19.38
383.23	29.38
383.359	1.38
383.488	30.38
383.616	29.38
383.745	-0.62
383.874	21.38
384.003	23.38
384.131	7.38
384.26	13.38
384.389	44.38
384.517	22.38
384.646	17.38
384.774	33.38
384.903	63.38
385.032	58.38
385.16	19.38
385.289	5.38
385.418	20.38
385.546	38.38
385.675	42.38
385.803	24.38
385.932	20.38
386.06	13.38
386.189	35.38
386.318	32.38
386.446	12.38
386.575	21.38
386.703	21.38
386.832	33.38
386.96	-0.62
387.089	28.38
387.217	26.38
387.346	24.38
387.474	20.38
387.603	32.38
387.731	37.38
387.86	44.38
387.988	27.38
388.117	44.38
388.245	17.38
388.374	2.38
388.502	45.38
388.631	2.38
388.759	16.38
388.888	40.38
389.016	37.38
389.144	20.38
389.273	22.38
389.401	17.38
389.53	12.38
389.658	61.38
389.786	20.38
389.915	8.38
390.043	13.38
390.172	26.38
390.3	45.38
390.428	36.38
390.557	21.38
390.685	43.38
390.813	40.38
390.942	43.38
391.07	37.38
391.198	22.38
391.327	6.38
391.455	0.38
391.583	47.38
391.712	35.38
391.84	20.38
391.968	26.38
392.096	24.38
392.225	26.38
392.353	34.38
392.481	22.38
392.609	52.38
392.738	32.38
392.866	41.38
392.994	17.38
393.122	31.38
393.251	32.38
393.379	31.38
393.507	24.38
393.635	29.38
393.764	19.38
393.892	29.38
394.02	39.38
394.148	20.38
394.276	37.38
394.404	38.38
394.533	22.38
394.661	34.38
394.789	50.38
394.917	37.38
395.045	14.38
395.173	26.38
395.302	12.38
395.43	29.38
395.558	40.38
395.686	45.38
395.814	38.38
395.942	36.38
396.07	50.38
396.198	40.38
396.326	34.38
396.454	45.38
396.582	32.38
396.711	28.38
396.839	32.38
396.967	33.38
397.095	26.38
397.223	41.38
397.351	66.38
397.479	46.38
397.607	41.38
397.735	44.38
397.863	56.38
397.991	45.38
398.119	25.38
398.247	33.38
398.375	48.38
398.503	42.38
398.631	64.38
398.759	49.38
398.887	43.38
399.015	50.38
399.143	59.38
399.271	65.38
399.399	85.38
399.526	83.38
399.654	71.38
399.782	67.38
399.91	109.38
400.038	104.38
400.166	83.38
400.294	86.38
400.422	76.38
400.55	93.38
400.678	110.38
400.805	110.38
400.933	103.38
401.061	144.38
401.189	125.38
401.317	130.38
401.445	120.38
401.573	83.38
401.7	57.38
401.828	55.38
401.956	56.38
402.084	62.38
402.212	47.38
402.34	33.38
402.467	48.38
402.595	33.38
402.723	46.38
402.851	71.38
402.978	59.38
403.106	96.38
403.234	99.38
403.362	120.38
403.489	134.38
403.617	166.38
403.745	206.38
403.873	285.38
404	574.38
404.128	1517.38
404.256	3958.38
404.384	5126.38
404.511	5520.38
404.639	7245.38
404.767	11571.38
404.894	14748.38
405.022	4976.38
405.15	1338.38
405.277	442.38
405.405	242.38
405.533	130.38
405.66	113.38
405.788	64.38
405.916	64.38
406.043	38.38
406.171	55.38
406.299	67.38
406.426	65.38
406.554	68.38
406.681	78.38
406.809	55.38
406.937	55.38
407.064	50.38
407.192	137.38
407.319	306.38
407.447	548.38
407.574	536.38
407.702	640.38
407.83	871.38
407.957	1609.38
408.085	958.38
408.212	292.38
408.34	102.38
408.467	81.38
408.595	56.38
408.722	53.38
408.85	55.38
408.977	39.38
409.105	29.38
409.232	34.38
409.36	22.38
409.487	51.38
409.615	40.38
409.742	25.38
409.87	26.38
409.997	58.38
410.125	51.38
410.252	54.38
410.379	39.38
410.507	51.38
410.634	34.38
410.762	28.38
410.889	40.38
411.017	32.38
411.144	35.38
411.271	29.38
411.399	36.38
411.526	44.38
411.653	39.38
411.781	41.38
411.908	39.38
412.036	32.38
412.163	58.38
412.29	40.38
412.418	46.38
412.545	43.38
412.672	21.38
412.8	46.38
412.927	41.38
413.054	67.38
413.182	22.38
413.309	34.38
413.436	27.38
413.564	18.38
413.691	28.38
413.818	45.38
413.945	16.38
414.073	16.38
414.2	26.38
414.327	45.38
414.454	34.38
414.582	29.38
414.709	22.38
414.836	21.38
414.963	21.38
415.091	51.38
415.218	27.38
415.345	27.38
415.472	39.38
415.6	30.38
415.727	26.38
415.854	46.38
415.981	26.38
416.108	29.38
416.236	30.38
416.363	35.38
416.49	34.38
416.617	20.38
416.744	23.38
416.871	42.38
416.998	24.38
417.126	27.38
417.253	19.38
417.38	50.38
417.507	50.38
417.634	15.38
417.761	28.38
417.888	30.38
418.015	36.38
418.143	30.38
418.27	40.38
418.397	39.38
418.524	57.38
418.651	40.38
418.778	40.38
418.905	56.38
419.032	51.38
419.159	59.38
