Data from LowRes_mercury_15_20_11_07_2024_HR4C61881__60__15-23-38-270.txt Node

Date: Thu Nov 07 15:23:38 EST 2024
User: crc00042
Spectrometer: HR4C6188
Trigger mode: 4
Integration Time (sec): 1.000000E-1
Scans to average: 1
Electric dark correction enabled: true
Nonlinearity correction enabled: false
Boxcar width: 0
XAxis mode: Wavelengths
Number of Pixels in Spectrum: 3648
>>>>>Begin Spectral Data<<<<<
245.66	-73.54
245.797	-73.54
245.934	-73.54
246.071	-77.54
246.208	-13.54
246.344	18.46
246.481	2.46
246.618	5.46
246.755	17.46
246.892	-1.54
247.029	-23.54
247.165	-21.54
247.302	-8.54
247.439	3.46
247.576	8.46
247.713	-20.54
247.849	27.46
247.986	-7.54
248.123	9.46
248.26	-1.54
248.396	14.46
248.533	-3.54
248.67	-21.54
248.806	-3.54
248.943	-11.54
249.08	-5.54
249.216	14.46
249.353	-24.54
249.49	-19.54
249.626	8.46
249.763	-12.54
249.9	-3.54
250.036	3.46
250.173	12.46
250.309	6.46
250.446	-5.54
250.582	-9.54
250.719	-12.54
250.856	-8.54
250.992	-6.54
251.129	-2.54
251.265	-9.54
251.402	2.46
251.538	12.46
251.675	-13.54
251.811	6.46
251.948	10.46
252.084	8.46
252.221	-4.54
252.357	-13.54
252.493	27.46
252.63	2.46
252.766	-6.54
252.903	-10.54
253.039	6.46
253.175	-9.54
253.312	0.46
253.448	8.46
253.585	-11.54
253.721	13.46
253.857	-13.54
253.994	-1.54
254.13	-8.54
254.266	-2.54
254.403	2.46
254.539	-7.54
254.675	6.46
254.811	8.46
254.948	3.46
255.084	-14.54
255.22	-9.54
255.356	15.46
255.493	6.46
255.629	7.46
255.765	12.46
255.901	0.46
256.037	-3.54
256.174	-3.54
256.31	11.46
256.446	-2.54
256.582	-0.54
256.718	16.46
256.854	12.46
256.991	28.46
257.127	21.46
257.263	-7.54
257.399	5.46
257.535	4.46
257.671	7.46
257.807	-12.54
257.943	2.46
258.079	-2.54
258.215	-7.54
258.351	2.46
258.487	-11.54
258.623	20.46
258.759	0.46
258.895	-18.54
259.031	-1.54
259.167	5.46
259.303	9.46
259.439	0.46
259.575	-5.54
259.711	7.46
259.847	-15.54
259.983	6.46
260.119	-9.54
260.255	-7.54
260.391	-5.54
260.527	21.46
260.663	15.46
260.799	18.46
260.934	0.46
261.07	8.46
261.206	-4.54
261.342	-8.54
261.478	17.46
261.614	0.46
261.749	11.46
261.885	-0.54
262.021	18.46
262.157	28.46
262.293	-12.54
262.428	-8.54
262.564	-0.54
262.7	6.46
262.836	-11.54
262.971	25.46
263.107	1.46
263.243	24.46
263.378	14.46
263.514	-12.54
263.65	24.46
263.785	-24.54
263.921	-18.54
264.057	-7.54
264.192	-7.54
264.328	16.46
264.464	7.46
264.599	15.46
264.735	12.46
264.871	-10.54
265.006	1.46
265.142	-1.54
265.277	5.46
265.413	6.46
265.548	9.46
265.684	12.46
265.819	12.46
265.955	8.46
266.091	-16.54
266.226	-10.54
266.362	-10.54
266.497	11.46
266.633	1.46
266.768	8.46
266.903	15.46
267.039	23.46
267.174	1.46
267.31	2.46
267.445	9.46
267.581	-11.54
267.716	-10.54
267.851	13.46
267.987	18.46
268.122	14.46
268.258	4.46
268.393	4.46
268.528	20.46
268.664	-0.54
268.799	-14.54
268.934	5.46
269.07	2.46
269.205	-14.54
269.34	24.46
269.476	-1.54
269.611	-1.54
269.746	20.46
269.881	4.46
270.017	8.46
270.152	1.46
270.287	3.46
270.422	16.46
270.558	-8.54
270.693	-6.54
270.828	-9.54
270.963	-6.54
271.098	-9.54
271.234	-4.54
271.369	6.46
271.504	14.46
271.639	9.46
271.774	2.46
271.909	-1.54
272.045	-23.54
272.18	0.46
272.315	-1.54
272.45	20.46
272.585	-7.54
272.72	13.46
272.855	-9.54
272.99	35.46
273.125	2.46
273.26	-4.54
273.395	-10.54
273.53	-3.54
273.665	24.46
273.8	11.46
273.935	6.46
274.07	11.46
274.205	-12.54
274.34	-10.54
274.475	-13.54
274.61	27.46
274.745	1.46
274.88	23.46
275.015	-11.54
275.15	13.46
275.285	23.46
275.42	19.46
275.555	7.46
275.69	6.46
275.825	-13.54
275.959	-7.54
276.094	-13.54
276.229	-3.54
276.364	-15.54
276.499	-17.54
276.634	-3.54
276.768	-4.54
276.903	13.46
277.038	19.46
277.173	5.46
277.308	6.46
277.442	-4.54
277.577	-0.54
277.712	-19.54
277.847	-9.54
277.981	6.46
278.116	-12.54
278.251	15.46
278.386	12.46
278.52	1.46
278.655	4.46
278.79	25.46
278.924	-9.54
279.059	-6.54
279.194	-12.54
279.328	32.46
279.463	6.46
279.598	11.46
279.732	-8.54
279.867	12.46
280.001	14.46
280.136	-0.54
280.271	15.46
280.405	-0.54
280.54	8.46
280.674	10.46
280.809	28.46
280.943	16.46
281.078	-17.54
281.213	6.46
281.347	12.46
281.482	15.46
281.616	-10.54
281.751	1.46
281.885	-12.54
282.02	0.46
282.154	20.46
282.288	-15.54
282.423	7.46
282.557	-13.54
282.692	1.46
282.826	-3.54
282.961	8.46
283.095	0.46
283.229	2.46
283.364	-16.54
283.498	-19.54
283.633	10.46
283.767	3.46
283.901	14.46
284.036	12.46
284.17	-13.54
284.304	-12.54
284.439	4.46
284.573	6.46
284.707	37.46
284.842	2.46
284.976	-10.54
285.11	-4.54
285.244	-6.54
285.379	20.46
285.513	9.46
285.647	12.46
285.781	-8.54
285.916	3.46
286.05	-2.54
286.184	25.46
286.318	26.46
286.453	4.46
286.587	-2.54
286.721	-1.54
286.855	7.46
286.989	-7.54
287.123	-0.54
287.258	-6.54
287.392	-0.54
287.526	18.46
287.66	8.46
287.794	-10.54
287.928	-11.54
288.062	-21.54
288.196	-8.54
288.33	3.46
288.464	27.46
288.598	23.46
288.733	12.46
288.867	8.46
289.001	1.46
289.135	-12.54
289.269	-3.54
289.403	17.46
289.537	6.46
289.671	2.46
289.805	-7.54
289.939	3.46
290.073	-17.54
290.207	11.46
290.34	-12.54
290.474	22.46
290.608	15.46
290.742	5.46
290.876	-7.54
291.01	-6.54
291.144	18.46
291.278	23.46
291.412	13.46
291.546	10.46
291.679	-9.54
291.813	0.46
291.947	22.46
292.081	1.46
292.215	3.46
292.349	29.46
292.482	21.46
292.616	-9.54
292.75	6.46
292.884	21.46
293.018	-12.54
293.151	-14.54
293.285	10.46
293.419	-17.54
293.553	-0.54
293.686	-6.54
293.82	6.46
293.954	5.46
294.088	25.46
294.221	-0.54
294.355	2.46
294.489	3.46
294.622	12.46
294.756	-0.54
294.89	17.46
295.023	1.46
295.157	16.46
295.291	11.46
295.424	0.46
295.558	-13.54
295.691	-10.54
295.825	3.46
295.959	-17.54
296.092	14.46
296.226	4.46
296.359	-6.54
296.493	-10.54
296.627	-5.54
296.76	15.46
296.894	6.46
297.027	17.46
297.161	6.46
297.294	-4.54
297.428	8.46
297.561	15.46
297.695	2.46
297.828	4.46
297.962	-7.54
298.095	2.46
298.229	5.46
298.362	0.46
298.495	-28.54
298.629	-21.54
298.762	-0.54
298.896	-14.54
299.029	-1.54
299.162	6.46
299.296	0.46
299.429	-6.54
299.563	0.46
299.696	-8.54
299.829	8.46
299.963	16.46
300.096	-3.54
300.229	6.46
300.363	-4.54
300.496	0.46
300.629	-20.54
300.763	-12.54
300.896	-13.54
301.029	3.46
301.162	-18.54
301.296	-7.54
301.429	0.46
301.562	-13.54
301.695	-1.54
301.829	-0.54
301.962	19.46
302.095	7.46
302.228	-21.54
302.362	7.46
302.495	-3.54
302.628	-9.54
302.761	-6.54
302.894	15.46
303.027	13.46
303.161	-20.54
303.294	-4.54
303.427	10.46
303.56	-4.54
303.693	-15.54
303.826	-7.54
303.959	4.46
304.092	-7.54
304.225	2.46
304.359	3.46
304.492	2.46
304.625	-20.54
304.758	-0.54
304.891	1.46
305.024	11.46
305.157	-8.54
305.29	-4.54
305.423	0.46
305.556	-2.54
305.689	28.46
305.822	-2.54
305.955	3.46
306.088	-4.54
306.221	-12.54
306.354	-13.54
306.487	3.46
306.62	2.46
306.752	-12.54
306.885	12.46
307.018	4.46
307.151	-7.54
307.284	7.46
307.417	-11.54
307.55	13.46
307.683	11.46
307.816	-0.54
307.948	-14.54
308.081	8.46
308.214	8.46
308.347	7.46
308.48	-4.54
308.613	2.46
308.745	18.46
308.878	-4.54
309.011	8.46
309.144	22.46
309.277	-5.54
309.409	13.46
309.542	0.46
309.675	-0.54
309.808	0.46
309.94	10.46
310.073	-8.54
310.206	-11.54
310.339	17.46
310.471	-4.54
310.604	1.46
310.737	-12.54
310.869	-9.54
311.002	-3.54
311.135	6.46
311.267	-22.54
311.4	-8.54
311.533	16.46
311.665	-14.54
311.798	-4.54
311.93	19.46
312.063	24.46
312.196	64.46
312.328	78.46
312.461	47.46
312.593	8.46
312.726	54.46
312.859	102.46
312.991	147.46
313.124	31.46
313.256	16.46
313.389	19.46
313.521	1.46
313.654	9.46
313.786	-15.54
313.919	-12.54
314.051	-3.54
314.184	11.46
314.316	-7.54
314.449	-11.54
314.581	3.46
314.714	0.46
314.846	-7.54
314.978	-21.54
315.111	-10.54
315.243	-4.54
315.376	0.46
315.508	5.46
315.641	-1.54
315.773	2.46
315.905	3.46
316.038	-1.54
316.17	-6.54
316.302	12.46
316.435	-0.54
316.567	3.46
316.699	15.46
316.832	-2.54
316.964	-13.54
317.096	-1.54
317.229	-10.54
317.361	-19.54
317.493	-20.54
317.625	-9.54
317.758	-0.54
317.89	1.46
318.022	-3.54
318.155	-15.54
318.287	12.46
318.419	2.46
318.551	7.46
318.683	1.46
318.816	6.46
318.948	-7.54
319.08	-31.54
319.212	-5.54
319.344	2.46
319.477	-1.54
319.609	12.46
319.741	21.46
319.873	1.46
320.005	-0.54
320.137	-7.54
320.269	10.46
320.401	6.46
320.534	-12.54
320.666	-20.54
320.798	-3.54
320.93	-1.54
321.062	-20.54
321.194	-14.54
321.326	8.46
321.458	13.46
321.59	5.46
321.722	-23.54
321.854	6.46
321.986	8.46
322.118	5.46
322.25	-10.54
322.382	-1.54
322.514	6.46
322.646	-4.54
322.778	18.46
322.91	13.46
323.042	-1.54
323.174	-13.54
323.306	2.46
323.438	-27.54
323.57	-2.54
323.702	-19.54
323.834	-4.54
323.966	1.46
324.097	2.46
324.229	2.46
324.361	3.46
324.493	4.46
324.625	-0.54
324.757	17.46
324.889	6.46
325.021	16.46
325.152	9.46
325.284	18.46
325.416	4.46
325.548	19.46
325.68	-11.54
325.811	5.46
325.943	16.46
326.075	0.46
326.207	18.46
326.339	16.46
326.47	-19.54
326.602	2.46
326.734	20.46
326.866	18.46
326.997	-19.54
327.129	-3.54
327.261	-15.54
327.392	0.46
327.524	3.46
327.656	13.46
327.787	12.46
327.919	-11.54
328.051	-8.54
328.182	18.46
328.314	8.46
328.446	-0.54
328.577	11.46
328.709	0.46
328.841	-5.54
328.972	-13.54
329.104	-8.54
329.235	-0.54
329.367	-6.54
329.499	10.46
329.63	-5.54
329.762	20.46
329.893	23.46
330.025	19.46
330.156	-9.54
330.288	-0.54
330.419	22.46
330.551	22.46
330.683	24.46
330.814	8.46
330.946	20.46
331.077	3.46
331.208	-12.54
331.34	3.46
331.471	10.46
331.603	12.46
331.734	-15.54
331.866	15.46
331.997	18.46
332.129	12.46
332.26	4.46
332.392	35.46
332.523	1.46
332.654	-2.54
332.786	-12.54
332.917	4.46
333.048	22.46
333.18	27.46
333.311	2.46
333.443	14.46
333.574	-7.54
333.705	33.46
333.837	25.46
333.968	106.46
334.099	222.46
334.231	216.46
334.362	51.46
334.493	24.46
334.624	19.46
334.756	11.46
334.887	17.46
335.018	9.46
335.15	22.46
335.281	8.46
335.412	23.46
335.543	12.46
335.675	3.46
335.806	12.46
335.937	4.46
336.068	8.46
336.199	35.46
336.331	15.46
336.462	4.46
336.593	19.46
336.724	-7.54
336.855	-4.54
336.986	15.46
337.118	18.46
337.249	11.46
337.38	4.46
337.511	20.46
337.642	12.46
337.773	17.46
337.904	18.46
338.035	5.46
338.166	11.46
338.298	6.46
338.429	-5.54
338.56	3.46
338.691	21.46
338.822	17.46
338.953	6.46
339.084	16.46
339.215	12.46
339.346	9.46
339.477	14.46
339.608	-3.54
339.739	-3.54
339.87	10.46
340.001	18.46
340.132	21.46
340.263	22.46
340.394	12.46
340.525	8.46
340.656	-0.54
340.787	17.46
340.918	17.46
341.049	19.46
341.179	23.46
341.31	17.46
341.441	24.46
341.572	28.46
341.703	6.46
341.834	1.46
341.965	11.46
342.096	9.46
342.227	32.46
342.357	15.46
342.488	0.46
342.619	25.46
342.75	19.46
342.881	-2.54
343.012	30.46
343.142	10.46
343.273	21.46
343.404	25.46
343.535	43.46
343.666	37.46
343.796	27.46
343.927	34.46
344.058	37.46
344.189	23.46
344.319	21.46
344.45	19.46
344.581	13.46
344.712	16.46
344.842	28.46
344.973	27.46
345.104	24.46
345.234	26.46
345.365	17.46
345.496	13.46
345.626	40.46
345.757	42.46
345.888	8.46
346.018	39.46
346.149	28.46
346.28	40.46
346.41	22.46
346.541	33.46
346.672	16.46
346.802	27.46
346.933	21.46
347.063	29.46
347.194	40.46
347.325	36.46
347.455	40.46
347.586	19.46
347.716	16.46
347.847	32.46
347.977	44.46
348.108	39.46
348.238	33.46
348.369	32.46
348.499	53.46
348.63	50.46
348.76	40.46
348.891	54.46
349.021	56.46
349.152	37.46
349.282	65.46
349.413	49.46
349.543	67.46
349.674	24.46
349.804	42.46
349.935	17.46
350.065	16.46
350.196	30.46
350.326	41.46
350.456	23.46
350.587	26.46
350.717	21.46
350.848	32.46
350.978	32.46
351.108	7.46
351.239	44.46
351.369	15.46
351.499	12.46
351.63	7.46
351.76	16.46
351.89	14.46
352.021	21.46
352.151	26.46
352.281	24.46
352.412	42.46
352.542	15.46
352.672	29.46
352.803	8.46
352.933	21.46
353.063	11.46
353.193	25.46
353.324	2.46
353.454	24.46
353.584	39.46
353.714	28.46
353.845	34.46
353.975	14.46
354.105	-4.54
354.235	31.46
354.365	24.46
354.496	13.46
354.626	19.46
354.756	16.46
354.886	16.46
355.016	26.46
355.146	-3.54
355.277	22.46
355.407	24.46
355.537	38.46
355.667	35.46
355.797	30.46
355.927	27.46
356.057	22.46
356.187	7.46
356.318	6.46
356.448	28.46
356.578	23.46
356.708	32.46
356.838	34.46
356.968	21.46
357.098	28.46
357.228	23.46
357.358	32.46
357.488	20.46
357.618	56.46
357.748	29.46
357.878	33.46
358.008	20.46
358.138	33.46
358.268	28.46
358.398	60.46
358.528	4.46
358.658	21.46
358.788	24.46
358.918	25.46
359.048	16.46
359.178	53.46
359.308	32.46
359.438	35.46
359.568	32.46
359.698	20.46
359.827	37.46
359.957	27.46
360.087	35.46
360.217	15.46
360.347	28.46
360.477	62.46
360.607	23.46
360.737	32.46
360.866	25.46
360.996	11.46
361.126	8.46
361.256	37.46
361.386	52.46
361.516	43.46
361.645	-2.54
361.775	14.46
361.905	23.46
362.035	28.46
362.165	33.46
362.294	34.46
362.424	49.46
362.554	46.46
362.684	35.46
362.813	40.46
362.943	63.46
363.073	49.46
363.203	57.46
363.332	83.46
363.462	58.46
363.592	99.46
363.721	127.46
363.851	172.46
363.981	198.46
364.111	267.46
364.24	312.46
364.37	479.46
364.5	858.46
364.629	1795.46
364.759	3835.46
364.888	6185.46
365.018	9363.46
365.148	14779.46
365.277	12995.46
365.407	4734.46
365.537	3071.46
365.666	4014.46
365.796	1820.46
365.925	782.46
366.055	768.46
366.184	1036.46
366.314	1384.46
366.444	2447.46
366.573	2108.46
366.703	644.46
366.832	225.46
366.962	104.46
367.091	87.46
367.221	81.46
367.35	55.46
367.48	91.46
367.609	61.46
367.739	55.46
367.868	36.46
367.998	33.46
368.127	51.46
368.257	38.46
368.386	44.46
368.516	76.46
368.645	29.46
368.775	31.46
368.904	26.46
369.033	27.46
369.163	31.46
369.292	52.46
369.422	47.46
369.551	38.46
369.68	30.46
369.81	24.46
369.939	39.46
370.069	62.46
370.198	54.46
370.327	22.46
370.457	26.46
370.586	28.46
370.715	19.46
370.845	28.46
370.974	50.46
371.103	52.46
371.233	51.46
371.362	42.46
371.491	30.46
371.621	50.46
371.75	43.46
371.879	29.46
372.008	39.46
372.138	27.46
372.267	48.46
372.396	48.46
372.525	56.46
372.655	30.46
372.784	20.46
372.913	25.46
373.042	17.46
373.172	27.46
373.301	-4.54
373.43	-9.54
373.559	11.46
373.688	26.46
373.818	30.46
373.947	43.46
374.076	33.46
374.205	35.46
374.334	2.46
374.463	5.46
374.593	28.46
374.722	25.46
374.851	28.46
374.98	14.46
375.109	20.46
375.238	17.46
375.367	32.46
375.496	3.46
375.625	9.46
375.755	30.46
375.884	14.46
376.013	24.46
376.142	7.46
376.271	32.46
376.4	34.46
376.529	34.46
376.658	32.46
376.787	29.46
376.916	30.46
377.045	20.46
377.174	24.46
377.303	17.46
377.432	16.46
377.561	18.46
377.69	10.46
377.819	36.46
377.948	28.46
378.077	26.46
378.206	0.46
378.335	11.46
378.464	-2.54
378.593	17.46
378.722	9.46
378.851	6.46
378.98	22.46
379.108	-0.54
379.237	6.46
379.366	28.46
379.495	23.46
379.624	17.46
379.753	31.46
379.882	15.46
380.011	21.46
380.14	10.46
380.268	32.46
380.397	26.46
380.526	28.46
380.655	10.46
380.784	-2.54
380.913	14.46
381.041	12.46
381.17	-1.54
381.299	3.46
381.428	27.46
381.557	14.46
381.685	17.46
381.814	8.46
381.943	15.46
382.072	16.46
382.2	8.46
382.329	10.46
382.458	13.46
382.587	33.46
382.715	38.46
382.844	20.46
382.973	25.46
383.102	11.46
383.23	19.46
383.359	2.46
383.488	20.46
383.616	17.46
383.745	21.46
383.874	18.46
384.003	2.46
384.131	10.46
384.26	13.46
384.389	15.46
384.517	17.46
384.646	5.46
384.774	-4.54
384.903	27.46
385.032	33.46
385.16	28.46
385.289	9.46
385.418	26.46
385.546	15.46
385.675	29.46
385.803	13.46
385.932	25.46
386.06	13.46
386.189	19.46
386.318	30.46
386.446	19.46
386.575	18.46
386.703	31.46
386.832	29.46
386.96	-5.54
387.089	39.46
387.217	22.46
387.346	18.46
387.474	31.46
387.603	34.46
387.731	9.46
387.86	26.46
387.988	11.46
388.117	22.46
388.245	30.46
388.374	-2.54
388.502	14.46
388.631	-9.54
388.759	-0.54
388.888	15.46
389.016	9.46
389.144	22.46
389.273	15.46
389.401	18.46
389.53	-11.54
389.658	35.46
389.786	30.46
389.915	15.46
390.043	10.46
390.172	41.46
390.3	54.46
390.428	34.46
390.557	23.46
390.685	39.46
390.813	45.46
390.942	40.46
391.07	6.46
391.198	1.46
391.327	15.46
391.455	0.46
391.583	23.46
391.712	27.46
391.84	11.46
391.968	21.46
392.096	16.46
392.225	6.46
392.353	21.46
392.481	21.46
392.609	45.46
392.738	22.46
392.866	30.46
392.994	19.46
393.122	46.46
393.251	7.46
393.379	16.46
393.507	14.46
393.635	11.46
393.764	27.46
393.892	28.46
394.02	14.46
394.148	18.46
394.276	3.46
394.404	44.46
394.533	23.46
394.661	18.46
394.789	31.46
394.917	49.46
395.045	19.46
395.173	13.46
395.302	4.46
395.43	18.46
395.558	36.46
395.686	35.46
395.814	34.46
395.942	-1.54
396.07	12.46
396.198	34.46
396.326	25.46
396.454	35.46
396.582	22.46
396.711	35.46
396.839	12.46
396.967	32.46
397.095	22.46
397.223	30.46
397.351	52.46
397.479	51.46
397.607	42.46
397.735	43.46
397.863	43.46
397.991	30.46
398.119	29.46
398.247	51.46
398.375	50.46
398.503	25.46
398.631	55.46
398.759	54.46
398.887	51.46
399.015	60.46
399.143	63.46
399.271	61.46
399.399	71.46
399.526	81.46
399.654	74.46
399.782	53.46
399.91	104.46
400.038	87.46
400.166	75.46
400.294	89.46
400.422	86.46
400.55	113.46
400.678	105.46
400.805	117.46
400.933	125.46
401.061	126.46
401.189	120.46
401.317	138.46
401.445	92.46
401.573	78.46
401.7	36.46
401.828	45.46
401.956	52.46
402.084	35.46
402.212	31.46
402.34	22.46
402.467	24.46
402.595	15.46
402.723	36.46
402.851	61.46
402.978	47.46
403.106	78.46
403.234	73.46
403.362	102.46
403.489	111.46
403.617	166.46
403.745	214.46
403.873	281.46
404	553.46
404.128	1425.46
404.256	3889.46
404.384	5047.46
404.511	5412.46
404.639	7135.46
404.767	11321.46
404.894	14592.46
405.022	4899.46
405.15	1279.46
405.277	416.46
405.405	226.46
405.533	141.46
405.66	117.46
405.788	62.46
405.916	74.46
406.043	45.46
406.171	48.46
406.299	47.46
406.426	68.46
406.554	54.46
406.681	42.46
406.809	28.46
406.937	77.46
407.064	51.46
407.192	135.46
407.319	305.46
407.447	523.46
407.574	550.46
407.702	611.46
407.83	835.46
407.957	1597.46
408.085	924.46
408.212	266.46
408.34	110.46
408.467	42.46
408.595	52.46
408.722	52.46
408.85	48.46
408.977	36.46
409.105	14.46
409.232	36.46
409.36	36.46
409.487	26.46
409.615	36.46
409.742	40.46
409.87	28.46
409.997	48.46
410.125	37.46
410.252	22.46
410.379	14.46
410.507	26.46
410.634	29.46
410.762	21.46
410.889	26.46
411.017	34.46
411.144	44.46
411.271	29.46
411.399	36.46
411.526	33.46
411.653	19.46
411.781	28.46
411.908	10.46
412.036	12.46
412.163	29.46
412.29	29.46
412.418	18.46
412.545	24.46
412.672	32.46
412.8	55.46
412.927	26.46
413.054	52.46
413.182	19.46
413.309	35.46
413.436	15.46
413.564	26.46
413.691	38.46
413.818	48.46
413.945	20.46
414.073	19.46
414.2	17.46
414.327	38.46
414.454	36.46
414.582	24.46
414.709	27.46
414.836	10.46
414.963	18.46
415.091	29.46
415.218	21.46
415.345	30.46
415.472	12.46
415.6	4.46
415.727	33.46
415.854	20.46
415.981	24.46
416.108	9.46
416.236	18.46
416.363	18.46
416.49	16.46
416.617	13.46
416.744	31.46
416.871	22.46
416.998	24.46
417.126	21.46
417.253	27.46
417.38	21.46
417.507	27.46
417.634	40.46
417.761	44.46
417.888	32.46
418.015	23.46
418.143	16.46
418.27	40.46
418.397	31.46
418.524	26.46
418.651	14.46
