Data from LowRes_mercury_15_20_11_07_2024_HR4C61881__91__15-23-41-370.txt Node

Date: Thu Nov 07 15:23:41 EST 2024
User: crc00042
Spectrometer: HR4C6188
Trigger mode: 4
Integration Time (sec): 1.000000E-1
Scans to average: 1
Electric dark correction enabled: true
Nonlinearity correction enabled: false
Boxcar width: 0
XAxis mode: Wavelengths
Number of Pixels in Spectrum: 3648
>>>>>Begin Spectral Data<<<<<
245.66	-68.15
245.797	-68.15
245.934	-68.15
246.071	-97.15
246.208	2.85
246.344	5.85
246.481	-7.15
246.618	6.85
246.755	10.85
246.892	15.85
247.029	-0.15
247.165	-10.15
247.302	17.85
247.439	0.85
247.576	-2.15
247.713	-20.15
247.849	-0.15
247.986	-18.15
248.123	-2.15
248.26	9.85
248.396	-0.15
248.533	6.85
248.67	1.85
248.806	-5.15
248.943	-12.15
249.08	-24.15
249.216	-2.15
249.353	-5.15
249.49	-9.15
249.626	9.85
249.763	10.85
249.9	-23.15
250.036	11.85
250.173	-6.15
250.309	-2.15
250.446	-7.15
250.582	-12.15
250.719	-12.15
250.856	-8.15
250.992	6.85
251.129	2.85
251.265	3.85
251.402	-9.15
251.538	-0.15
251.675	6.85
251.811	13.85
251.948	8.85
252.084	-14.15
252.221	-1.15
252.357	-6.15
252.493	24.85
252.63	1.85
252.766	3.85
252.903	-5.15
253.039	-7.15
253.175	-8.15
253.312	20.85
253.448	-11.15
253.585	-11.15
253.721	12.85
253.857	-8.15
253.994	16.85
254.13	-12.15
254.266	2.85
254.403	-4.15
254.539	-10.15
254.675	6.85
254.811	-0.15
254.948	2.85
255.084	4.85
255.22	9.85
255.356	-15.15
255.493	2.85
255.629	-6.15
255.765	-18.15
255.901	-10.15
256.037	0.85
256.174	-1.15
256.31	-12.15
256.446	-12.15
256.582	-6.15
256.718	-0.15
256.854	19.85
256.991	-3.15
257.127	5.85
257.263	6.85
257.399	10.85
257.535	-0.15
257.671	4.85
257.807	-8.15
257.943	-6.15
258.079	-24.15
258.215	6.85
258.351	1.85
258.487	-2.15
258.623	31.85
258.759	5.85
258.895	-13.15
259.031	17.85
259.167	-18.15
259.303	11.85
259.439	-6.15
259.575	-5.15
259.711	-13.15
259.847	-11.15
259.983	5.85
260.119	-12.15
260.255	2.85
260.391	1.85
260.527	13.85
260.663	2.85
260.799	18.85
260.934	2.85
261.07	-27.15
261.206	-16.15
261.342	-12.15
261.478	10.85
261.614	11.85
261.749	4.85
261.885	6.85
262.021	8.85
262.157	10.85
262.293	-8.15
262.428	-18.15
262.564	0.85
262.7	11.85
262.836	8.85
262.971	6.85
263.107	9.85
263.243	19.85
263.378	10.85
263.514	1.85
263.65	14.85
263.785	-17.15
263.921	-15.15
264.057	0.85
264.192	-8.15
264.328	11.85
264.464	-4.15
264.599	9.85
264.735	19.85
264.871	-12.15
265.006	-3.15
265.142	-6.15
265.277	6.85
265.413	22.85
265.548	12.85
265.684	10.85
265.819	-10.15
265.955	-11.15
266.091	-7.15
266.226	2.85
266.362	7.85
266.497	17.85
266.633	-11.15
266.768	-12.15
266.903	-1.15
267.039	24.85
267.174	14.85
267.31	-4.15
267.445	-14.15
267.581	8.85
267.716	24.85
267.851	6.85
267.987	14.85
268.122	13.85
268.258	3.85
268.393	0.85
268.528	17.85
268.664	-1.15
268.799	-5.15
268.934	6.85
269.07	2.85
269.205	-3.15
269.34	39.85
269.476	7.85
269.611	-7.15
269.746	24.85
269.881	-8.15
270.017	14.85
270.152	0.85
270.287	8.85
270.422	-17.15
270.558	-9.15
270.693	17.85
270.828	-10.15
270.963	-8.15
271.098	-3.15
271.234	5.85
271.369	17.85
271.504	19.85
271.639	-5.15
271.774	-5.15
271.909	-10.15
272.045	-23.15
272.18	-5.15
272.315	-8.15
272.45	29.85
272.585	-5.15
272.72	-9.15
272.855	17.85
272.99	25.85
273.125	-8.15
273.26	-14.15
273.395	-4.15
273.53	-6.15
273.665	15.85
273.8	-7.15
273.935	-3.15
274.07	-3.15
274.205	-12.15
274.34	7.85
274.475	-2.15
274.61	24.85
274.745	-18.15
274.88	22.85
275.015	-24.15
275.15	-7.15
275.285	27.85
275.42	6.85
275.555	23.85
275.69	14.85
275.825	2.85
275.959	11.85
276.094	-9.15
276.229	7.85
276.364	-5.15
276.499	1.85
276.634	7.85
276.768	-16.15
276.903	6.85
277.038	3.85
277.173	13.85
277.308	1.85
277.442	-15.15
277.577	1.85
277.712	-0.15
277.847	-2.15
277.981	1.85
278.116	-26.15
278.251	9.85
278.386	9.85
278.52	19.85
278.655	-8.15
278.79	2.85
278.924	2.85
279.059	8.85
279.194	-5.15
279.328	21.85
279.463	12.85
279.598	25.85
279.732	2.85
279.867	8.85
280.001	6.85
280.136	-9.15
280.271	-10.15
280.405	-7.15
280.54	9.85
280.674	2.85
280.809	28.85
280.943	19.85
281.078	12.85
281.213	18.85
281.347	22.85
281.482	-8.15
281.616	-19.15
281.751	-2.15
281.885	-13.15
282.02	7.85
282.154	13.85
282.288	3.85
282.423	-5.15
282.557	2.85
282.692	10.85
282.826	-11.15
282.961	25.85
283.095	-12.15
283.229	-15.15
283.364	-28.15
283.498	2.85
283.633	4.85
283.767	-5.15
283.901	22.85
284.036	-2.15
284.17	-12.15
284.304	-10.15
284.439	1.85
284.573	-10.15
284.707	18.85
284.842	9.85
284.976	9.85
285.11	-0.15
285.244	8.85
285.379	38.85
285.513	-9.15
285.647	5.85
285.781	5.85
285.916	8.85
286.05	-0.15
286.184	27.85
286.318	27.85
286.453	11.85
286.587	-20.15
286.721	-12.15
286.855	5.85
286.989	20.85
287.123	1.85
287.258	4.85
287.392	3.85
287.526	21.85
287.66	4.85
287.794	-6.15
287.928	-8.15
288.062	12.85
288.196	0.85
288.33	-6.15
288.464	10.85
288.598	11.85
288.733	-0.15
288.867	-3.15
289.001	-15.15
289.135	-14.15
289.269	-8.15
289.403	-9.15
289.537	10.85
289.671	-0.15
289.805	-14.15
289.939	12.85
290.073	3.85
290.207	19.85
290.34	4.85
290.474	19.85
290.608	-7.15
290.742	-0.15
290.876	-7.15
291.01	15.85
291.144	24.85
291.278	12.85
291.412	12.85
291.546	-0.15
291.679	-2.15
291.813	-11.15
291.947	1.85
292.081	5.85
292.215	-3.15
292.349	8.85
292.482	9.85
292.616	-5.15
292.75	7.85
292.884	5.85
293.018	8.85
293.151	4.85
293.285	0.85
293.419	-2.15
293.553	-3.15
293.686	-12.15
293.82	5.85
293.954	13.85
294.088	18.85
294.221	-12.15
294.355	-7.15
294.489	-12.15
294.622	-14.15
294.756	2.85
294.89	25.85
295.023	30.85
295.157	8.85
295.291	3.85
295.424	10.85
295.558	-9.15
295.691	8.85
295.825	1.85
295.959	-16.15
296.092	-6.15
296.226	-2.15
296.359	19.85
296.493	28.85
296.627	3.85
296.76	-0.15
296.894	-7.15
297.027	12.85
297.161	8.85
297.294	-9.15
297.428	-2.15
297.561	31.85
297.695	1.85
297.828	-2.15
297.962	-14.15
298.095	-13.15
298.229	-0.15
298.362	-8.15
298.495	-9.15
298.629	-3.15
298.762	-3.15
298.896	12.85
299.029	-6.15
299.162	14.85
299.296	8.85
299.429	-7.15
299.563	16.85
299.696	0.85
299.829	-2.15
299.963	1.85
300.096	-3.15
300.229	-8.15
300.363	5.85
300.496	-2.15
300.629	-6.15
300.763	-4.15
300.896	-7.15
301.029	-4.15
301.162	18.85
301.296	-11.15
301.429	-1.15
301.562	-20.15
301.695	3.85
301.829	14.85
301.962	24.85
302.095	6.85
302.228	-17.15
302.362	-9.15
302.495	-17.15
302.628	5.85
302.761	-6.15
302.894	8.85
303.027	7.85
303.161	6.85
303.294	-3.15
303.427	-0.15
303.56	2.85
303.693	2.85
303.826	-10.15
303.959	9.85
304.092	11.85
304.225	6.85
304.359	4.85
304.492	1.85
304.625	2.85
304.758	10.85
304.891	1.85
305.024	-2.15
305.157	-19.15
305.29	-1.15
305.423	-2.15
305.556	12.85
305.689	25.85
305.822	-7.15
305.955	-6.15
306.088	6.85
306.221	-8.15
306.354	-20.15
306.487	-6.15
306.62	-4.15
306.752	-2.15
306.885	-4.15
307.018	-7.15
307.151	10.85
307.284	26.85
307.417	-4.15
307.55	-4.15
307.683	8.85
307.816	20.85
307.948	12.85
308.081	26.85
308.214	6.85
308.347	15.85
308.48	-17.15
308.613	-2.15
308.745	1.85
308.878	3.85
309.011	5.85
309.144	0.85
309.277	7.85
309.409	5.85
309.542	-4.15
309.675	19.85
309.808	4.85
309.94	21.85
310.073	-16.15
310.206	-8.15
310.339	2.85
310.471	-25.15
310.604	8.85
310.737	0.85
310.869	1.85
311.002	5.85
311.135	7.85
311.267	-12.15
311.4	-6.15
311.533	19.85
311.665	8.85
311.798	1.85
311.93	0.85
312.063	17.85
312.196	29.85
312.328	76.85
312.461	56.85
312.593	23.85
312.726	50.85
312.859	99.85
312.991	158.85
313.124	51.85
313.256	14.85
313.389	11.85
313.521	7.85
313.654	12.85
313.786	-12.15
313.919	-5.15
314.051	-4.15
314.184	8.85
314.316	-7.15
314.449	-24.15
314.581	-2.15
314.714	-9.15
314.846	17.85
314.978	-10.15
315.111	-10.15
315.243	-10.15
315.376	5.85
315.508	10.85
315.641	-10.15
315.773	10.85
315.905	14.85
316.038	3.85
316.17	-7.15
316.302	-2.15
316.435	2.85
316.567	-11.15
316.699	9.85
316.832	-12.15
316.964	-12.15
317.096	-3.15
317.229	-11.15
317.361	-30.15
317.493	-15.15
317.625	-19.15
317.758	7.85
317.89	19.85
318.022	-6.15
318.155	-22.15
318.287	-25.15
318.419	-13.15
318.551	-15.15
318.683	-14.15
318.816	-3.15
318.948	-9.15
319.08	-16.15
319.212	-3.15
319.344	9.85
319.477	3.85
319.609	10.85
319.741	16.85
319.873	-5.15
320.005	7.85
320.137	3.85
320.269	-1.15
320.401	11.85
320.534	-8.15
320.666	-18.15
320.798	-22.15
320.93	-6.15
321.062	-11.15
321.194	-10.15
321.326	-0.15
321.458	15.85
321.59	-0.15
321.722	10.85
321.854	8.85
321.986	5.85
322.118	11.85
322.25	-14.15
322.382	-0.15
322.514	-6.15
322.646	-18.15
322.778	5.85
322.91	-25.15
323.042	-9.15
323.174	-7.15
323.306	-10.15
323.438	-13.15
323.57	10.85
323.702	3.85
323.834	-0.15
323.966	-10.15
324.097	-3.15
324.229	9.85
324.361	8.85
324.493	6.85
324.625	-1.15
324.757	17.85
324.889	6.85
325.021	17.85
325.152	10.85
325.284	8.85
325.416	-3.15
325.548	5.85
325.68	4.85
325.811	1.85
325.943	19.85
326.075	-0.15
326.207	9.85
326.339	10.85
326.47	2.85
326.602	6.85
326.734	7.85
326.866	9.85
326.997	-8.15
327.129	4.85
327.261	4.85
327.392	-9.15
327.524	6.85
327.656	7.85
327.787	12.85
327.919	2.85
328.051	15.85
328.182	13.85
328.314	15.85
328.446	-0.15
328.577	10.85
328.709	14.85
328.841	-38.15
328.972	-12.15
329.104	-26.15
329.235	-7.15
329.367	-5.15
329.499	12.85
329.63	-2.15
329.762	5.85
329.893	6.85
330.025	12.85
330.156	-6.15
330.288	8.85
330.419	6.85
330.551	9.85
330.683	8.85
330.814	-12.15
330.946	17.85
331.077	-11.15
331.208	-0.15
331.34	-10.15
331.471	-7.15
331.603	5.85
331.734	-10.15
331.866	-3.15
331.997	2.85
332.129	-3.15
332.26	-21.15
332.392	15.85
332.523	6.85
332.654	-5.15
332.786	9.85
332.917	5.85
333.048	18.85
333.18	37.85
333.311	13.85
333.443	16.85
333.574	3.85
333.705	40.85
333.837	51.85
333.968	122.85
334.099	209.85
334.231	199.85
334.362	54.85
334.493	32.85
334.624	2.85
334.756	-0.15
334.887	11.85
335.018	4.85
335.15	22.85
335.281	4.85
335.412	28.85
335.543	14.85
335.675	1.85
335.806	15.85
335.937	4.85
336.068	-0.15
336.199	35.85
336.331	4.85
336.462	13.85
336.593	10.85
336.724	-11.15
336.855	0.85
336.986	27.85
337.118	13.85
337.249	16.85
337.38	20.85
337.511	21.85
337.642	23.85
337.773	13.85
337.904	25.85
338.035	25.85
338.166	-1.15
338.298	9.85
338.429	-2.15
338.56	8.85
338.691	17.85
338.822	4.85
338.953	15.85
339.084	13.85
339.215	10.85
339.346	21.85
339.477	25.85
339.608	8.85
339.739	2.85
339.87	12.85
340.001	2.85
340.132	20.85
340.263	-1.15
340.394	24.85
340.525	9.85
340.656	-3.15
340.787	-5.15
340.918	35.85
341.049	11.85
341.179	15.85
341.31	-10.15
341.441	22.85
341.572	18.85
341.703	-4.15
341.834	8.85
341.965	23.85
342.096	14.85
342.227	21.85
342.357	22.85
342.488	12.85
342.619	6.85
342.75	20.85
342.881	2.85
343.012	17.85
343.142	39.85
343.273	7.85
343.404	18.85
343.535	33.85
343.666	25.85
343.796	33.85
343.927	22.85
344.058	41.85
344.189	37.85
344.319	26.85
344.45	19.85
344.581	22.85
344.712	-0.15
344.842	14.85
344.973	21.85
345.104	29.85
345.234	29.85
345.365	6.85
345.496	26.85
345.626	22.85
345.757	31.85
345.888	4.85
346.018	38.85
346.149	18.85
346.28	39.85
346.41	3.85
346.541	26.85
346.672	15.85
346.802	23.85
346.933	16.85
347.063	30.85
347.194	28.85
347.325	23.85
347.455	39.85
347.586	28.85
347.716	22.85
347.847	24.85
347.977	27.85
348.108	51.85
348.238	53.85
348.369	32.85
348.499	45.85
348.63	56.85
348.76	37.85
348.891	45.85
349.021	41.85
349.152	62.85
349.282	44.85
349.413	38.85
349.543	53.85
349.674	22.85
349.804	31.85
349.935	21.85
350.065	5.85
350.196	35.85
350.326	25.85
350.456	23.85
350.587	40.85
350.717	31.85
350.848	26.85
350.978	40.85
351.108	11.85
351.239	45.85
351.369	10.85
351.499	28.85
351.63	34.85
351.76	28.85
351.89	24.85
352.021	30.85
352.151	4.85
352.281	23.85
352.412	24.85
352.542	39.85
352.672	19.85
352.803	20.85
352.933	35.85
353.063	26.85
353.193	18.85
353.324	10.85
353.454	7.85
353.584	29.85
353.714	25.85
353.845	15.85
353.975	10.85
354.105	12.85
354.235	10.85
354.365	17.85
354.496	19.85
354.626	27.85
354.756	25.85
354.886	7.85
355.016	21.85
355.146	9.85
355.277	17.85
355.407	22.85
355.537	8.85
355.667	6.85
355.797	26.85
355.927	13.85
356.057	28.85
356.187	5.85
356.318	14.85
356.448	14.85
356.578	21.85
356.708	27.85
356.838	32.85
356.968	28.85
357.098	23.85
357.228	29.85
357.358	-7.15
357.488	20.85
357.618	47.85
357.748	37.85
357.878	14.85
358.008	6.85
358.138	20.85
358.268	22.85
358.398	22.85
358.528	-6.15
358.658	14.85
358.788	24.85
358.918	21.85
359.048	12.85
359.178	35.85
359.308	27.85
359.438	41.85
359.568	13.85
359.698	31.85
359.827	7.85
359.957	26.85
360.087	22.85
360.217	25.85
360.347	30.85
360.477	36.85
360.607	13.85
360.737	37.85
360.866	23.85
360.996	2.85
361.126	27.85
361.256	47.85
361.386	35.85
361.516	35.85
361.645	18.85
361.775	49.85
361.905	11.85
362.035	42.85
362.165	13.85
362.294	49.85
362.424	53.85
362.554	35.85
362.684	33.85
362.813	58.85
362.943	44.85
363.073	58.85
363.203	63.85
363.332	76.85
363.462	77.85
363.592	89.85
363.721	121.85
363.851	163.85
363.981	200.85
364.111	262.85
364.24	309.85
364.37	501.85
364.5	819.85
364.629	1753.85
364.759	3807.85
364.888	6183.85
365.018	9244.85
365.148	14730.85
365.277	12823.85
365.407	4692.85
365.537	3076.85
365.666	4007.85
365.796	1796.85
365.925	793.85
366.055	731.85
366.184	1011.85
366.314	1401.85
366.444	2439.85
366.573	2094.85
366.703	660.85
366.832	218.85
366.962	117.85
367.091	88.85
367.221	71.85
367.35	46.85
367.48	79.85
367.609	51.85
367.739	51.85
367.868	19.85
367.998	42.85
368.127	38.85
368.257	59.85
368.386	57.85
368.516	57.85
368.645	30.85
368.775	25.85
368.904	44.85
369.033	24.85
369.163	16.85
369.292	42.85
369.422	40.85
369.551	51.85
369.68	33.85
369.81	44.85
369.939	35.85
370.069	35.85
370.198	32.85
370.327	30.85
370.457	36.85
370.586	42.85
370.715	14.85
370.845	41.85
370.974	31.85
371.103	37.85
371.233	44.85
371.362	45.85
371.491	28.85
371.621	45.85
371.75	61.85
371.879	40.85
372.008	41.85
372.138	55.85
372.267	57.85
372.396	56.85
372.525	34.85
372.655	35.85
372.784	35.85
372.913	29.85
373.042	32.85
373.172	25.85
373.301	-1.15
373.43	23.85
373.559	17.85
373.688	29.85
373.818	41.85
373.947	30.85
374.076	31.85
374.205	43.85
374.334	14.85
374.463	6.85
374.593	18.85
374.722	35.85
374.851	29.85
374.98	-8.15
375.109	-1.15
375.238	47.85
375.367	42.85
375.496	-4.15
375.625	-0.15
375.755	31.85
375.884	36.85
376.013	22.85
376.142	-2.15
376.271	18.85
376.4	13.85
376.529	14.85
376.658	4.85
376.787	9.85
376.916	26.85
377.045	17.85
377.174	23.85
377.303	14.85
377.432	43.85
377.561	48.85
377.69	16.85
377.819	47.85
377.948	4.85
378.077	15.85
378.206	9.85
378.335	19.85
378.464	15.85
378.593	21.85
378.722	7.85
378.851	25.85
378.98	32.85
379.108	-4.15
379.237	3.85
379.366	18.85
379.495	28.85
379.624	39.85
379.753	9.85
379.882	13.85
380.011	-0.15
380.14	7.85
380.268	22.85
380.397	16.85
380.526	32.85
380.655	1.85
380.784	-5.15
380.913	15.85
381.041	32.85
381.17	-5.15
381.299	11.85
381.428	14.85
381.557	20.85
381.685	21.85
381.814	14.85
381.943	12.85
382.072	4.85
382.2	14.85
382.329	49.85
382.458	15.85
382.587	27.85
382.715	20.85
382.844	13.85
382.973	25.85
383.102	26.85
383.23	13.85
383.359	-2.15
383.488	18.85
383.616	19.85
383.745	-2.15
383.874	17.85
384.003	14.85
384.131	7.85
384.26	21.85
384.389	27.85
384.517	4.85
384.646	-3.15
384.774	-1.15
384.903	22.85
385.032	25.85
385.16	24.85
385.289	11.85
385.418	-0.15
385.546	23.85
385.675	38.85
385.803	-1.15
385.932	8.85
386.06	18.85
386.189	26.85
386.318	24.85
386.446	8.85
386.575	22.85
386.703	22.85
386.832	6.85
386.96	10.85
387.089	18.85
387.217	-4.15
387.346	13.85
387.474	-0.15
387.603	26.85
387.731	21.85
387.86	24.85
387.988	20.85
388.117	14.85
388.245	15.85
388.374	9.85
388.502	17.85
388.631	-0.15
388.759	21.85
388.888	11.85
389.016	3.85
389.144	8.85
389.273	25.85
389.401	18.85
389.53	10.85
389.658	40.85
389.786	16.85
389.915	9.85
390.043	-6.15
390.172	16.85
390.3	28.85
390.428	49.85
390.557	32.85
390.685	41.85
390.813	38.85
390.942	59.85
391.07	34.85
391.198	22.85
391.327	17.85
391.455	6.85
391.583	32.85
391.712	22.85
391.84	19.85
391.968	9.85
392.096	18.85
392.225	27.85
392.353	35.85
392.481	21.85
392.609	39.85
392.738	36.85
392.866	17.85
392.994	-4.15
393.122	40.85
393.251	18.85
393.379	13.85
393.507	27.85
393.635	24.85
393.764	33.85
393.892	28.85
394.02	18.85
394.148	23.85
394.276	13.85
394.404	38.85
394.533	15.85
394.661	38.85
394.789	47.85
394.917	35.85
395.045	16.85
395.173	13.85
395.302	26.85
395.43	30.85
395.558	31.85
395.686	50.85
395.814	48.85
395.942	25.85
396.07	42.85
396.198	26.85
396.326	36.85
396.454	49.85
396.582	23.85
396.711	29.85
396.839	35.85
396.967	31.85
397.095	26.85
397.223	30.85
397.351	46.85
397.479	34.85
397.607	18.85
397.735	51.85
397.863	66.85
397.991	52.85
398.119	25.85
398.247	31.85
398.375	40.85
398.503	29.85
398.631	54.85
398.759	52.85
398.887	71.85
399.015	41.85
399.143	69.85
399.271	58.85
399.399	80.85
399.526	74.85
399.654	93.85
399.782	60.85
399.91	88.85
400.038	87.85
400.166	78.85
400.294	81.85
400.422	79.85
400.55	117.85
400.678	105.85
400.805	114.85
400.933	130.85
401.061	107.85
401.189	101.85
401.317	130.85
401.445	110.85
401.573	70.85
401.7	37.85
401.828	52.85
401.956	55.85
402.084	48.85
402.212	35.85
402.34	41.85
402.467	31.85
402.595	44.85
402.723	44.85
402.851	53.85
402.978	41.85
403.106	70.85
403.234	77.85
403.362	128.85
403.489	121.85
403.617	162.85
403.745	194.85
403.873	271.85
404	559.85
404.128	1443.85
404.256	3888.85
404.384	5020.85
404.511	5439.85
404.639	7162.85
404.767	11352.85
404.894	14524.85
405.022	4832.85
405.15	1254.85
405.277	428.85
405.405	234.85
405.533	126.85
405.66	101.85
405.788	44.85
405.916	73.85
406.043	37.85
406.171	60.85
406.299	59.85
406.426	69.85
406.554	52.85
406.681	49.85
406.809	53.85
406.937	65.85
407.064	70.85
407.192	113.85
407.319	305.85
407.447	528.85
407.574	520.85
407.702	633.85
407.83	862.85
407.957	1588.85
408.085	922.85
408.212	279.85
408.34	85.85
408.467	58.85
408.595	44.85
408.722	65.85
408.85	51.85
408.977	26.85
409.105	42.85
409.232	33.85
409.36	34.85
409.487	42.85
409.615	38.85
409.742	34.85
409.87	25.85
409.997	43.85
410.125	43.85
410.252	37.85
410.379	34.85
410.507	39.85
410.634	34.85
410.762	25.85
410.889	37.85
411.017	37.85
411.144	36.85
411.271	32.85
411.399	12.85
411.526	19.85
411.653	22.85
411.781	32.85
411.908	37.85
412.036	5.85
412.163	36.85
412.29	26.85
412.418	36.85
412.545	38.85
412.672	24.85
412.8	30.85
412.927	30.85
413.054	45.85
413.182	35.85
413.309	11.85
413.436	30.85
413.564	26.85
413.691	26.85
413.818	36.85
413.945	21.85
414.073	20.85
414.2	32.85
414.327	18.85
414.454	23.85
414.582	44.85
414.709	33.85
414.836	23.85
414.963	23.85
415.091	20.85
415.218	23.85
415.345	29.85
415.472	20.85
415.6	29.85
415.727	37.85
415.854	18.85
415.981	10.85
416.108	26.85
416.236	39.85
416.363	30.85
416.49	14.85
416.617	32.85
416.744	25.85
416.871	33.85
416.998	29.85
417.126	38.85
417.253	28.85
417.38	10.85
417.507	26.85
417.634	18.85
417.761	44.85
417.888	24.85
418.015	35.85
418.143	22.85
418.27	50.85
418.397	15.85
418.524	37.85
418.651	17.85
418.778	51.85
