Data from LowRes_mercury_15_20_11_07_2024_HR4C61881__97__15-23-41-970.txt Node

Date: Thu Nov 07 15:23:41 EST 2024
User: crc00042
Spectrometer: HR4C6188
Trigger mode: 4
Integration Time (sec): 1.000000E-1
Scans to average: 1
Electric dark correction enabled: true
Nonlinearity correction enabled: false
Boxcar width: 0
XAxis mode: Wavelengths
Number of Pixels in Spectrum: 3648
>>>>>Begin Spectral Data<<<<<
245.66	-73.85
245.797	-73.85
245.934	-73.85
246.071	-71.85
246.208	16.15
246.344	6.15
246.481	-5.85
246.618	-1.85
246.755	16.15
246.892	-3.85
247.029	-20.85
247.165	-12.85
247.302	3.15
247.439	10.15
247.576	13.15
247.713	-21.85
247.849	29.15
247.986	-10.85
248.123	3.15
248.26	-2.85
248.396	13.15
248.533	1.15
248.67	-18.85
248.806	16.15
248.943	-13.85
249.08	-5.85
249.216	21.15
249.353	-3.85
249.49	4.15
249.626	7.15
249.763	-7.85
249.9	1.15
250.036	1.15
250.173	8.15
250.309	3.15
250.446	11.15
250.582	-0.85
250.719	-4.85
250.856	-20.85
250.992	-6.85
251.129	-2.85
251.265	-9.85
251.402	14.15
251.538	-10.85
251.675	5.15
251.811	16.15
251.948	27.15
252.084	13.15
252.221	1.15
252.357	-6.85
252.493	15.15
252.63	5.15
252.766	16.15
252.903	7.15
253.039	-0.85
253.175	1.15
253.312	-2.85
253.448	5.15
253.585	-11.85
253.721	2.15
253.857	13.15
253.994	5.15
254.13	-4.85
254.266	-0.85
254.403	-4.85
254.539	15.15
254.675	12.15
254.811	19.15
254.948	11.15
255.084	5.15
255.22	-3.85
255.356	9.15
255.493	20.15
255.629	8.15
255.765	-1.85
255.901	23.15
256.037	14.15
256.174	14.15
256.31	2.15
256.446	-10.85
256.582	9.15
256.718	20.15
256.854	24.15
256.991	19.15
257.127	19.15
257.263	1.15
257.399	6.15
257.535	-0.85
257.671	20.15
257.807	-9.85
257.943	-0.85
258.079	-22.85
258.215	14.15
258.351	24.15
258.487	7.15
258.623	28.15
258.759	6.15
258.895	-10.85
259.031	-12.85
259.167	-12.85
259.303	12.15
259.439	-20.85
259.575	14.15
259.711	3.15
259.847	5.15
259.983	12.15
260.119	2.15
260.255	16.15
260.391	22.15
260.527	16.15
260.663	17.15
260.799	14.15
260.934	7.15
261.07	-11.85
261.206	-0.85
261.342	-19.85
261.478	18.15
261.614	13.15
261.749	-15.85
261.885	-4.85
262.021	18.15
262.157	12.15
262.293	10.15
262.428	-6.85
262.564	13.15
262.7	8.15
262.836	18.15
262.971	4.15
263.107	0.15
263.243	23.15
263.378	10.15
263.514	-0.85
263.65	2.15
263.785	-11.85
263.921	-13.85
264.057	4.15
264.192	6.15
264.328	20.15
264.464	2.15
264.599	21.15
264.735	17.15
264.871	-19.85
265.006	10.15
265.142	-0.85
265.277	-21.85
265.413	1.15
265.548	6.15
265.684	11.15
265.819	-0.85
265.955	-10.85
266.091	-10.85
266.226	-6.85
266.362	5.15
266.497	14.15
266.633	-21.85
266.768	0.15
266.903	9.15
267.039	-3.85
267.174	7.15
267.31	4.15
267.445	-6.85
267.581	8.15
267.716	13.15
267.851	7.15
267.987	17.15
268.122	19.15
268.258	-3.85
268.393	13.15
268.528	17.15
268.664	5.15
268.799	0.15
268.934	-4.85
269.07	-9.85
269.205	3.15
269.34	23.15
269.476	8.15
269.611	-5.85
269.746	14.15
269.881	13.15
270.017	16.15
270.152	-9.85
270.287	15.15
270.422	20.15
270.558	5.15
270.693	18.15
270.828	2.15
270.963	9.15
271.098	-4.85
271.234	-5.85
271.369	-6.85
271.504	9.15
271.639	-17.85
271.774	-9.85
271.909	5.15
272.045	-10.85
272.18	19.15
272.315	15.15
272.45	9.15
272.585	1.15
272.72	-7.85
272.855	11.15
272.99	18.15
273.125	-11.85
273.26	-11.85
273.395	4.15
273.53	-3.85
273.665	8.15
273.8	-1.85
273.935	-1.85
274.07	-2.85
274.205	10.15
274.34	14.15
274.475	3.15
274.61	7.15
274.745	1.15
274.88	5.15
275.015	-3.85
275.15	18.15
275.285	-11.85
275.42	-6.85
275.555	18.15
275.69	4.15
275.825	-8.85
275.959	2.15
276.094	-10.85
276.229	-4.85
276.364	-2.85
276.499	2.15
276.634	2.15
276.768	5.15
276.903	13.15
277.038	29.15
277.173	14.15
277.308	-11.85
277.442	11.15
277.577	-2.85
277.712	-16.85
277.847	9.15
277.981	8.15
278.116	-12.85
278.251	-13.85
278.386	10.15
278.52	3.15
278.655	-14.85
278.79	23.15
278.924	15.15
279.059	10.15
279.194	-5.85
279.328	38.15
279.463	7.15
279.598	15.15
279.732	5.15
279.867	22.15
280.001	20.15
280.136	3.15
280.271	2.15
280.405	2.15
280.54	22.15
280.674	-13.85
280.809	17.15
280.943	6.15
281.078	-6.85
281.213	21.15
281.347	21.15
281.482	10.15
281.616	-2.85
281.751	-1.85
281.885	-14.85
282.02	-7.85
282.154	3.15
282.288	-14.85
282.423	-8.85
282.557	-7.85
282.692	-5.85
282.826	-1.85
282.961	6.15
283.095	-7.85
283.229	-7.85
283.364	-17.85
283.498	-11.85
283.633	10.15
283.767	-3.85
283.901	2.15
284.036	6.15
284.17	-13.85
284.304	4.15
284.439	3.15
284.573	-5.85
284.707	5.15
284.842	25.15
284.976	-8.85
285.11	-13.85
285.244	14.15
285.379	25.15
285.513	-11.85
285.647	17.15
285.781	15.15
285.916	8.15
286.05	12.15
286.184	31.15
286.318	12.15
286.453	8.15
286.587	-1.85
286.721	-3.85
286.855	-1.85
286.989	16.15
287.123	-4.85
287.258	-6.85
287.392	-9.85
287.526	6.15
287.66	-8.85
287.794	-9.85
287.928	-1.85
288.062	19.15
288.196	23.15
288.33	14.15
288.464	12.15
288.598	13.15
288.733	2.15
288.867	11.15
289.001	5.15
289.135	15.15
289.269	-0.85
289.403	11.15
289.537	7.15
289.671	7.15
289.805	4.15
289.939	16.15
290.073	13.15
290.207	24.15
290.34	0.15
290.474	19.15
290.608	6.15
290.742	22.15
290.876	10.15
291.01	2.15
291.144	8.15
291.278	24.15
291.412	10.15
291.546	2.15
291.679	16.15
291.813	4.15
291.947	-6.85
292.081	12.15
292.215	-6.85
292.349	10.15
292.482	8.15
292.616	-1.85
292.75	15.15
292.884	6.15
293.018	16.15
293.151	-23.85
293.285	12.15
293.419	1.15
293.553	16.15
293.686	-17.85
293.82	0.15
293.954	25.15
294.088	18.15
294.221	-11.85
294.355	0.15
294.489	3.15
294.622	-4.85
294.756	6.15
294.89	14.15
295.023	9.15
295.157	20.15
295.291	32.15
295.424	42.15
295.558	19.15
295.691	2.15
295.825	-5.85
295.959	5.15
296.092	-10.85
296.226	9.15
296.359	10.15
296.493	0.15
296.627	-1.85
296.76	-8.85
296.894	-10.85
297.027	13.15
297.161	7.15
297.294	-20.85
297.428	5.15
297.561	19.15
297.695	-3.85
297.828	14.15
297.962	-4.85
298.095	1.15
298.229	6.15
298.362	-8.85
298.495	-6.85
298.629	-10.85
298.762	-10.85
298.896	13.15
299.029	-6.85
299.162	-19.85
299.296	7.15
299.429	6.15
299.563	-6.85
299.696	16.15
299.829	7.15
299.963	19.15
300.096	-6.85
300.229	5.15
300.363	3.15
300.496	4.15
300.629	-7.85
300.763	5.15
300.896	-0.85
301.029	19.15
301.162	27.15
301.296	-7.85
301.429	-6.85
301.562	-19.85
301.695	19.15
301.829	9.15
301.962	22.15
302.095	11.15
302.228	4.15
302.362	9.15
302.495	-18.85
302.628	6.15
302.761	7.15
302.894	12.15
303.027	-2.85
303.161	-5.85
303.294	-17.85
303.427	17.15
303.56	12.15
303.693	5.15
303.826	-5.85
303.959	-22.85
304.092	4.15
304.225	2.15
304.359	5.15
304.492	5.15
304.625	12.15
304.758	18.15
304.891	-17.85
305.024	-20.85
305.157	0.15
305.29	-10.85
305.423	11.15
305.556	-1.85
305.689	26.15
305.822	-1.85
305.955	-8.85
306.088	1.15
306.221	8.15
306.354	-1.85
306.487	16.15
306.62	-2.85
306.752	0.15
306.885	5.15
307.018	8.15
307.151	8.15
307.284	14.15
307.417	-6.85
307.55	1.15
307.683	-0.85
307.816	22.15
307.948	19.15
308.081	25.15
308.214	14.15
308.347	18.15
308.48	-0.85
308.613	12.15
308.745	11.15
308.878	-5.85
309.011	5.15
309.144	13.15
309.277	-1.85
309.409	9.15
309.542	-5.85
309.675	21.15
309.808	5.15
309.94	12.15
310.073	10.15
310.206	-12.85
310.339	12.15
310.471	-13.85
310.604	21.15
310.737	-5.85
310.869	8.15
311.002	1.15
311.135	0.15
311.267	-3.85
311.4	-0.85
311.533	19.15
311.665	-16.85
311.798	-2.85
311.93	9.15
312.063	41.15
312.196	45.15
312.328	83.15
312.461	48.15
312.593	22.15
312.726	40.15
312.859	104.15
312.991	162.15
313.124	31.15
313.256	18.15
313.389	18.15
313.521	0.15
313.654	-4.85
313.786	-8.85
313.919	-3.85
314.051	-4.85
314.184	11.15
314.316	19.15
314.449	-7.85
314.581	0.15
314.714	0.15
314.846	8.15
314.978	-22.85
315.111	-10.85
315.243	6.15
315.376	13.15
315.508	6.15
315.641	5.15
315.773	15.15
315.905	2.15
316.038	4.15
316.17	17.15
316.302	-5.85
316.435	9.15
316.567	4.15
316.699	29.15
316.832	-15.85
316.964	4.15
317.096	13.15
317.229	-1.85
317.361	-8.85
317.493	-0.85
317.625	3.15
317.758	15.15
317.89	20.15
318.022	7.15
318.155	1.15
318.287	14.15
318.419	0.15
318.551	-2.85
318.683	19.15
318.816	-14.85
318.948	5.15
319.08	-8.85
319.212	-0.85
319.344	-2.85
319.477	-11.85
319.609	14.15
319.741	4.15
319.873	11.15
320.005	-13.85
320.137	4.15
320.269	2.15
320.401	14.15
320.534	-0.85
320.666	-9.85
320.798	0.15
320.93	3.15
321.062	-2.85
321.194	5.15
321.326	8.15
321.458	9.15
321.59	4.15
321.722	8.15
321.854	10.15
321.986	0.15
322.118	-1.85
322.25	-15.85
322.382	5.15
322.514	-7.85
322.646	-1.85
322.778	17.15
322.91	-8.85
323.042	-1.85
323.174	10.15
323.306	-12.85
323.438	-26.85
323.57	1.15
323.702	9.15
323.834	5.15
323.966	-17.85
324.097	9.15
324.229	32.15
324.361	15.15
324.493	-1.85
324.625	-18.85
324.757	13.15
324.889	7.15
325.021	8.15
325.152	22.15
325.284	16.15
325.416	-0.85
325.548	0.15
325.68	-19.85
325.811	9.15
325.943	20.15
326.075	-7.85
326.207	22.15
326.339	18.15
326.47	2.15
326.602	20.15
326.734	8.15
326.866	13.15
326.997	4.15
327.129	-7.85
327.261	-12.85
327.392	-3.85
327.524	9.15
327.656	18.15
327.787	26.15
327.919	9.15
328.051	-0.85
328.182	12.15
328.314	18.15
328.446	13.15
328.577	25.15
328.709	9.15
328.841	-17.85
328.972	-4.85
329.104	-9.85
329.235	-0.85
329.367	8.15
329.499	20.15
329.63	1.15
329.762	-7.85
329.893	13.15
330.025	11.15
330.156	-20.85
330.288	10.15
330.419	12.15
330.551	24.15
330.683	5.15
330.814	-11.85
330.946	13.15
331.077	-7.85
331.208	12.15
331.34	-1.85
331.471	-18.85
331.603	3.15
331.734	-4.85
331.866	7.15
331.997	8.15
332.129	13.15
332.26	-1.85
332.392	28.15
332.523	11.15
332.654	-1.85
332.786	22.15
332.917	13.15
333.048	26.15
333.18	12.15
333.311	1.15
333.443	13.15
333.574	14.15
333.705	59.15
333.837	33.15
333.968	103.15
334.099	217.15
334.231	190.15
334.362	54.15
334.493	32.15
334.624	15.15
334.756	24.15
334.887	45.15
335.018	7.15
335.15	18.15
335.281	-3.85
335.412	10.15
335.543	21.15
335.675	26.15
335.806	21.15
335.937	6.15
336.068	34.15
336.199	39.15
336.331	-4.85
336.462	-9.85
336.593	8.15
336.724	15.15
336.855	4.15
336.986	8.15
337.118	5.15
337.249	23.15
337.38	18.15
337.511	6.15
337.642	14.15
337.773	21.15
337.904	11.15
338.035	10.15
338.166	23.15
338.298	16.15
338.429	2.15
338.56	33.15
338.691	20.15
338.822	14.15
338.953	10.15
339.084	20.15
339.215	18.15
339.346	23.15
339.477	4.15
339.608	0.15
339.739	5.15
339.87	19.15
340.001	14.15
340.132	16.15
340.263	21.15
340.394	10.15
340.525	3.15
340.656	-9.85
340.787	7.15
340.918	38.15
341.049	16.15
341.179	24.15
341.31	-3.85
341.441	16.15
341.572	27.15
341.703	22.15
341.834	-2.85
341.965	21.15
342.096	6.15
342.227	9.15
342.357	18.15
342.488	19.15
342.619	20.15
342.75	13.15
342.881	2.15
343.012	37.15
343.142	37.15
343.273	8.15
343.404	22.15
343.535	36.15
343.666	32.15
343.796	31.15
343.927	35.15
344.058	41.15
344.189	35.15
344.319	35.15
344.45	21.15
344.581	22.15
344.712	13.15
344.842	36.15
344.973	22.15
345.104	40.15
345.234	41.15
345.365	22.15
345.496	30.15
345.626	27.15
345.757	16.15
345.888	12.15
346.018	29.15
346.149	23.15
346.28	42.15
346.41	23.15
346.541	26.15
346.672	16.15
346.802	39.15
346.933	26.15
347.063	39.15
347.194	28.15
347.325	19.15
347.455	33.15
347.586	36.15
347.716	21.15
347.847	41.15
347.977	37.15
348.108	44.15
348.238	45.15
348.369	40.15
348.499	49.15
348.63	34.15
348.76	38.15
348.891	51.15
349.021	58.15
349.152	60.15
349.282	53.15
349.413	31.15
349.543	35.15
349.674	22.15
349.804	56.15
349.935	21.15
350.065	14.15
350.196	33.15
350.326	24.15
350.456	10.15
350.587	34.15
350.717	25.15
350.848	38.15
350.978	57.15
351.108	22.15
351.239	43.15
351.369	22.15
351.499	21.15
351.63	41.15
351.76	21.15
351.89	25.15
352.021	35.15
352.151	24.15
352.281	36.15
352.412	34.15
352.542	16.15
352.672	16.15
352.803	21.15
352.933	30.15
353.063	17.15
353.193	13.15
353.324	18.15
353.454	28.15
353.584	26.15
353.714	16.15
353.845	17.15
353.975	14.15
354.105	18.15
354.235	36.15
354.365	23.15
354.496	22.15
354.626	24.15
354.756	45.15
354.886	27.15
355.016	30.15
355.146	19.15
355.277	14.15
355.407	27.15
355.537	25.15
355.667	15.15
355.797	27.15
355.927	22.15
356.057	37.15
356.187	30.15
356.318	20.15
356.448	27.15
356.578	24.15
356.708	39.15
356.838	41.15
356.968	37.15
357.098	52.15
357.228	38.15
357.358	9.15
357.488	7.15
357.618	48.15
357.748	42.15
357.878	14.15
358.008	8.15
358.138	32.15
358.268	32.15
358.398	25.15
358.528	28.15
358.658	47.15
358.788	22.15
358.918	31.15
359.048	38.15
359.178	37.15
359.308	32.15
359.438	46.15
359.568	30.15
359.698	41.15
359.827	18.15
359.957	22.15
360.087	21.15
360.217	24.15
360.347	57.15
360.477	24.15
360.607	6.15
360.737	37.15
360.866	26.15
360.996	14.15
361.126	38.15
361.256	46.15
361.386	52.15
361.516	29.15
361.645	4.15
361.775	44.15
361.905	7.15
362.035	61.15
362.165	42.15
362.294	40.15
362.424	30.15
362.554	35.15
362.684	32.15
362.813	19.15
362.943	52.15
363.073	50.15
363.203	58.15
363.332	68.15
363.462	76.15
363.592	94.15
363.721	125.15
363.851	169.15
363.981	227.15
364.111	264.15
364.24	320.15
364.37	468.15
364.5	851.15
364.629	1831.15
364.759	3823.15
364.888	6258.15
365.018	9372.15
365.148	14799.15
365.277	12934.15
365.407	4757.15
365.537	3098.15
365.666	4010.15
365.796	1843.15
365.925	821.15
366.055	775.15
366.184	1033.15
366.314	1403.15
366.444	2503.15
366.573	2117.15
366.703	664.15
366.832	214.15
366.962	125.15
367.091	81.15
367.221	71.15
367.35	58.15
367.48	84.15
367.609	65.15
367.739	63.15
367.868	16.15
367.998	56.15
368.127	62.15
368.257	55.15
368.386	68.15
368.516	62.15
368.645	43.15
368.775	48.15
368.904	40.15
369.033	37.15
369.163	19.15
369.292	48.15
369.422	34.15
369.551	33.15
369.68	48.15
369.81	45.15
369.939	33.15
370.069	53.15
370.198	31.15
370.327	30.15
370.457	48.15
370.586	45.15
370.715	38.15
370.845	31.15
370.974	52.15
371.103	57.15
371.233	48.15
371.362	54.15
371.491	33.15
371.621	55.15
371.75	35.15
371.879	39.15
372.008	44.15
372.138	49.15
372.267	65.15
372.396	65.15
372.525	52.15
372.655	22.15
372.784	23.15
372.913	27.15
373.042	44.15
373.172	18.15
373.301	-2.85
373.43	22.15
373.559	18.15
373.688	14.15
373.818	22.15
373.947	35.15
374.076	17.15
374.205	37.15
374.334	26.15
374.463	10.15
374.593	21.15
374.722	22.15
374.851	35.15
374.98	-0.85
375.109	14.15
375.238	21.15
375.367	28.15
375.496	7.15
375.625	34.15
375.755	22.15
375.884	35.15
376.013	35.15
376.142	-4.85
376.271	20.15
376.4	24.15
376.529	12.15
376.658	21.15
376.787	36.15
376.916	14.15
377.045	35.15
377.174	20.15
377.303	23.15
377.432	49.15
377.561	39.15
377.69	16.15
377.819	29.15
377.948	18.15
378.077	6.15
378.206	-7.85
378.335	15.15
378.464	15.15
378.593	21.15
378.722	0.15
378.851	-2.85
378.98	33.15
379.108	5.15
379.237	13.15
379.366	4.15
379.495	24.15
379.624	6.15
379.753	18.15
379.882	17.15
380.011	17.15
380.14	-1.85
380.268	10.15
380.397	11.15
380.526	24.15
380.655	2.15
380.784	7.15
380.913	0.15
381.041	10.15
381.17	-0.85
381.299	-0.85
381.428	18.15
381.557	19.15
381.685	31.15
381.814	27.15
381.943	19.15
382.072	16.15
382.2	14.15
382.329	17.15
382.458	25.15
382.587	34.15
382.715	34.15
382.844	31.15
382.973	7.15
383.102	30.15
383.23	29.15
383.359	16.15
383.488	25.15
383.616	-6.85
383.745	3.15
383.874	18.15
384.003	2.15
384.131	9.15
384.26	7.15
384.389	30.15
384.517	6.15
384.646	-6.85
384.774	11.15
384.903	22.15
385.032	39.15
385.16	17.15
385.289	19.15
385.418	22.15
385.546	19.15
385.675	23.15
385.803	29.15
385.932	42.15
386.06	39.15
386.189	37.15
386.318	35.15
386.446	9.15
386.575	9.15
386.703	34.15
386.832	10.15
386.96	7.15
387.089	47.15
387.217	23.15
387.346	3.15
387.474	-2.85
387.603	5.15
387.731	14.15
387.86	26.15
387.988	15.15
388.117	15.15
388.245	24.15
388.374	18.15
388.502	29.15
388.631	30.15
388.759	8.15
388.888	17.15
389.016	5.15
389.144	8.15
389.273	23.15
389.401	27.15
389.53	18.15
389.658	38.15
389.786	17.15
389.915	13.15
390.043	14.15
390.172	21.15
390.3	44.15
390.428	37.15
390.557	23.15
390.685	42.15
390.813	48.15
390.942	59.15
391.07	25.15
391.198	0.15
391.327	17.15
391.455	-6.85
391.583	34.15
391.712	23.15
391.84	12.15
391.968	-1.85
392.096	2.15
392.225	17.15
392.353	42.15
392.481	15.15
392.609	39.15
392.738	31.15
392.866	24.15
392.994	11.15
393.122	36.15
393.251	13.15
393.379	18.15
393.507	11.15
393.635	23.15
393.764	34.15
393.892	26.15
394.02	5.15
394.148	23.15
394.276	26.15
394.404	45.15
394.533	31.15
394.661	27.15
394.789	35.15
394.917	41.15
395.045	23.15
395.173	27.15
395.302	37.15
395.43	31.15
395.558	47.15
395.686	29.15
395.814	43.15
395.942	27.15
396.07	39.15
396.198	41.15
396.326	26.15
396.454	34.15
396.582	35.15
396.711	31.15
396.839	27.15
396.967	45.15
397.095	26.15
397.223	25.15
397.351	56.15
397.479	52.15
397.607	30.15
397.735	69.15
397.863	59.15
397.991	60.15
398.119	48.15
398.247	45.15
398.375	44.15
398.503	46.15
398.631	51.15
398.759	64.15
398.887	58.15
399.015	56.15
399.143	47.15
399.271	66.15
399.399	72.15
399.526	85.15
399.654	92.15
399.782	62.15
399.91	90.15
400.038	101.15
400.166	87.15
400.294	75.15
400.422	64.15
400.55	94.15
400.678	94.15
400.805	96.15
400.933	122.15
401.061	124.15
401.189	120.15
401.317	146.15
401.445	114.15
401.573	98.15
401.7	42.15
401.828	53.15
401.956	46.15
402.084	56.15
402.212	39.15
402.34	49.15
402.467	31.15
402.595	44.15
402.723	53.15
402.851	56.15
402.978	43.15
403.106	76.15
403.234	72.15
403.362	109.15
403.489	116.15
403.617	154.15
403.745	198.15
403.873	289.15
404	552.15
404.128	1448.15
404.256	3892.15
404.384	5118.15
404.511	5474.15
404.639	7231.15
404.767	11418.15
404.894	14618.15
405.022	4906.15
405.15	1294.15
405.277	409.15
405.405	238.15
405.533	136.15
405.66	112.15
405.788	74.15
405.916	72.15
406.043	33.15
406.171	37.15
406.299	56.15
406.426	74.15
406.554	52.15
406.681	67.15
406.809	54.15
406.937	54.15
407.064	65.15
407.192	147.15
407.319	331.15
407.447	542.15
407.574	526.15
407.702	617.15
407.83	841.15
407.957	1588.15
408.085	927.15
408.212	264.15
408.34	106.15
408.467	74.15
408.595	46.15
408.722	53.15
408.85	46.15
408.977	34.15
409.105	39.15
409.232	28.15
409.36	36.15
409.487	23.15
409.615	16.15
409.742	33.15
409.87	25.15
409.997	42.15
410.125	30.15
410.252	28.15
410.379	26.15
410.507	51.15
410.634	25.15
410.762	55.15
410.889	46.15
411.017	44.15
411.144	28.15
411.271	15.15
411.399	11.15
411.526	34.15
411.653	42.15
411.781	34.15
411.908	26.15
412.036	28.15
412.163	25.15
412.29	19.15
412.418	29.15
412.545	39.15
412.672	32.15
412.8	66.15
412.927	38.15
413.054	50.15
413.182	47.15
413.309	23.15
413.436	19.15
413.564	31.15
413.691	35.15
413.818	49.15
413.945	3.15
414.073	32.15
414.2	37.15
414.327	36.15
414.454	31.15
414.582	19.15
414.709	8.15
414.836	10.15
414.963	25.15
415.091	43.15
415.218	32.15
415.345	11.15
415.472	13.15
415.6	29.15
415.727	48.15
415.854	34.15
415.981	27.15
416.108	29.15
416.236	38.15
416.363	36.15
416.49	20.15
416.617	28.15
416.744	45.15
416.871	44.15
416.998	28.15
417.126	21.15
417.253	12.15
417.38	25.15
417.507	31.15
417.634	32.15
417.761	45.15
417.888	43.15
418.015	41.15
418.143	44.15
418.27	37.15
418.397	29.15
418.524	35.15
418.651	11.15
418.778	27.15
418.905	51.15
419.032	38.15
