Data from LowRes_mercury_15_20_11_07_2024_HR4C61881__44__15-23-36-671.txt Node

Date: Thu Nov 07 15:23:36 EST 2024
User: crc00042
Spectrometer: HR4C6188
Trigger mode: 4
Integration Time (sec): 1.000000E-1
Scans to average: 1
Electric dark correction enabled: true
Nonlinearity correction enabled: false
Boxcar width: 0
XAxis mode: Wavelengths
Number of Pixels in Spectrum: 3648
>>>>>Begin Spectral Data<<<<<
245.66	-65.46
245.797	-65.46
245.934	-65.46
246.071	-80.46
246.208	6.54
246.344	1.54
246.481	-2.46
246.618	-14.46
246.755	5.54
246.892	3.54
247.029	-12.46
247.165	-12.46
247.302	13.54
247.439	11.54
247.576	16.54
247.713	1.54
247.849	17.54
247.986	-29.46
248.123	9.54
248.26	-2.46
248.396	19.54
248.533	7.54
248.67	-0.46
248.806	6.54
248.943	-4.46
249.08	-2.46
249.216	10.54
249.353	-20.46
249.49	-6.46
249.626	-18.46
249.763	-15.46
249.9	-8.46
250.036	18.54
250.173	19.54
250.309	6.54
250.446	2.54
250.582	14.54
250.719	3.54
250.856	-2.46
250.992	-4.46
251.129	2.54
251.265	-17.46
251.402	-0.46
251.538	-5.46
251.675	6.54
251.811	16.54
251.948	18.54
252.084	4.54
252.221	-0.46
252.357	-21.46
252.493	18.54
252.63	10.54
252.766	36.54
252.903	8.54
253.039	5.54
253.175	-5.46
253.312	11.54
253.448	12.54
253.585	-11.46
253.721	11.54
253.857	2.54
253.994	-0.46
254.13	12.54
254.266	4.54
254.403	6.54
254.539	20.54
254.675	6.54
254.811	-3.46
254.948	3.54
255.084	17.54
255.22	4.54
255.356	-0.46
255.493	12.54
255.629	12.54
255.765	-4.46
255.901	16.54
256.037	25.54
256.174	9.54
256.31	9.54
256.446	-7.46
256.582	-8.46
256.718	14.54
256.854	23.54
256.991	14.54
257.127	11.54
257.263	-1.46
257.399	20.54
257.535	2.54
257.671	10.54
257.807	0.54
257.943	-7.46
258.079	-8.46
258.215	-8.46
258.351	22.54
258.487	-1.46
258.623	0.54
258.759	17.54
258.895	4.54
259.031	9.54
259.167	8.54
259.303	21.54
259.439	-6.46
259.575	1.54
259.711	-12.46
259.847	-6.46
259.983	22.54
260.119	0.54
260.255	-5.46
260.391	-1.46
260.527	9.54
260.663	15.54
260.799	1.54
260.934	-7.46
261.07	-13.46
261.206	-8.46
261.342	-6.46
261.478	11.54
261.614	23.54
261.749	15.54
261.885	2.54
262.021	1.54
262.157	33.54
262.293	3.54
262.428	-1.46
262.564	7.54
262.7	8.54
262.836	22.54
262.971	27.54
263.107	-1.46
263.243	10.54
263.378	-4.46
263.514	-5.46
263.65	5.54
263.785	-15.46
263.921	-5.46
264.057	2.54
264.192	7.54
264.328	24.54
264.464	-1.46
264.599	-2.46
264.735	31.54
264.871	-2.46
265.006	23.54
265.142	15.54
265.277	3.54
265.413	4.54
265.548	17.54
265.684	11.54
265.819	16.54
265.955	5.54
266.091	-8.46
266.226	-18.46
266.362	-0.46
266.497	8.54
266.633	-3.46
266.768	-1.46
266.903	13.54
267.039	11.54
267.174	22.54
267.31	-4.46
267.445	0.54
267.581	3.54
267.716	20.54
267.851	9.54
267.987	1.54
268.122	15.54
268.258	0.54
268.393	-0.46
268.528	25.54
268.664	12.54
268.799	-7.46
268.934	13.54
269.07	-9.46
269.205	3.54
269.34	29.54
269.476	2.54
269.611	-5.46
269.746	22.54
269.881	6.54
270.017	28.54
270.152	7.54
270.287	13.54
270.422	21.54
270.558	4.54
270.693	19.54
270.828	1.54
270.963	8.54
271.098	-5.46
271.234	3.54
271.369	23.54
271.504	11.54
271.639	-8.46
271.774	-4.46
271.909	-1.46
272.045	-33.46
272.18	-8.46
272.315	4.54
272.45	27.54
272.585	-1.46
272.72	-5.46
272.855	-0.46
272.99	7.54
273.125	0.54
273.26	-3.46
273.395	3.54
273.53	14.54
273.665	14.54
273.8	10.54
273.935	8.54
274.07	9.54
274.205	11.54
274.34	-6.46
274.475	-1.46
274.61	9.54
274.745	-5.46
274.88	22.54
275.015	-8.46
275.15	13.54
275.285	29.54
275.42	14.54
275.555	19.54
275.69	36.54
275.825	25.54
275.959	14.54
276.094	-5.46
276.229	1.54
276.364	-6.46
276.499	12.54
276.634	15.54
276.768	-4.46
276.903	3.54
277.038	28.54
277.173	25.54
277.308	-3.46
277.442	4.54
277.577	0.54
277.712	4.54
277.847	-4.46
277.981	22.54
278.116	-6.46
278.251	7.54
278.386	-15.46
278.52	-5.46
278.655	-10.46
278.79	0.54
278.924	13.54
279.059	18.54
279.194	0.54
279.328	33.54
279.463	28.54
279.598	22.54
279.732	10.54
279.867	17.54
280.001	24.54
280.136	-11.46
280.271	2.54
280.405	4.54
280.54	-2.46
280.674	-0.46
280.809	14.54
280.943	-0.46
281.078	-7.46
281.213	-8.46
281.347	12.54
281.482	16.54
281.616	-8.46
281.751	7.54
281.885	2.54
282.02	17.54
282.154	41.54
282.288	-0.46
282.423	-5.46
282.557	-15.46
282.692	11.54
282.826	-9.46
282.961	12.54
283.095	1.54
283.229	3.54
283.364	3.54
283.498	-6.46
283.633	8.54
283.767	19.54
283.901	15.54
284.036	-2.46
284.17	8.54
284.304	1.54
284.439	16.54
284.573	-2.46
284.707	28.54
284.842	18.54
284.976	18.54
285.11	-15.46
285.244	5.54
285.379	33.54
285.513	7.54
285.647	19.54
285.781	5.54
285.916	4.54
286.05	0.54
286.184	31.54
286.318	11.54
286.453	-16.46
286.587	4.54
286.721	-16.46
286.855	10.54
286.989	9.54
287.123	-13.46
287.258	-18.46
287.392	-3.46
287.526	4.54
287.66	-3.46
287.794	-5.46
287.928	10.54
288.062	15.54
288.196	-9.46
288.33	0.54
288.464	26.54
288.598	19.54
288.733	2.54
288.867	18.54
289.001	14.54
289.135	7.54
289.269	-9.46
289.403	6.54
289.537	-18.46
289.671	-3.46
289.805	-4.46
289.939	16.54
290.073	12.54
290.207	0.54
290.34	10.54
290.474	8.54
290.608	21.54
290.742	1.54
290.876	11.54
291.01	7.54
291.144	36.54
291.278	15.54
291.412	-1.46
291.546	-1.46
291.679	8.54
291.813	19.54
291.947	14.54
292.081	0.54
292.215	1.54
292.349	15.54
292.482	19.54
292.616	7.54
292.75	-12.46
292.884	6.54
293.018	-7.46
293.151	-3.46
293.285	9.54
293.419	-5.46
293.553	-11.46
293.686	-9.46
293.82	-2.46
293.954	23.54
294.088	36.54
294.221	-8.46
294.355	2.54
294.489	14.54
294.622	10.54
294.756	25.54
294.89	29.54
295.023	10.54
295.157	4.54
295.291	13.54
295.424	17.54
295.558	8.54
295.691	1.54
295.825	2.54
295.959	5.54
296.092	-20.46
296.226	2.54
296.359	24.54
296.493	14.54
296.627	3.54
296.76	20.54
296.894	10.54
297.027	7.54
297.161	15.54
297.294	-7.46
297.428	8.54
297.561	38.54
297.695	-2.46
297.828	-8.46
297.962	2.54
298.095	5.54
298.229	11.54
298.362	2.54
298.495	-7.46
298.629	-4.46
298.762	1.54
298.896	14.54
299.029	8.54
299.162	8.54
299.296	12.54
299.429	-2.46
299.563	11.54
299.696	-0.46
299.829	21.54
299.963	19.54
300.096	25.54
300.229	11.54
300.363	2.54
300.496	9.54
300.629	-20.46
300.763	-6.46
300.896	9.54
301.029	27.54
301.162	6.54
301.296	-14.46
301.429	-14.46
301.562	-15.46
301.695	13.54
301.829	3.54
301.962	27.54
302.095	4.54
302.228	-21.46
302.362	3.54
302.495	-8.46
302.628	13.54
302.761	1.54
302.894	23.54
303.027	18.54
303.161	-1.46
303.294	-4.46
303.427	6.54
303.56	15.54
303.693	0.54
303.826	14.54
303.959	3.54
304.092	8.54
304.225	10.54
304.359	19.54
304.492	15.54
304.625	3.54
304.758	16.54
304.891	5.54
305.024	11.54
305.157	-0.46
305.29	-9.46
305.423	5.54
305.556	10.54
305.689	18.54
305.822	6.54
305.955	13.54
306.088	11.54
306.221	-3.46
306.354	-3.46
306.487	-5.46
306.62	23.54
306.752	-2.46
306.885	13.54
307.018	6.54
307.151	8.54
307.284	8.54
307.417	-0.46
307.55	12.54
307.683	-0.46
307.816	18.54
307.948	3.54
308.081	-3.46
308.214	17.54
308.347	30.54
308.48	3.54
308.613	-15.46
308.745	-15.46
308.878	-10.46
309.011	6.54
309.144	11.54
309.277	-9.46
309.409	14.54
309.542	-7.46
309.675	28.54
309.808	19.54
309.94	30.54
310.073	-0.46
310.206	-7.46
310.339	2.54
310.471	-11.46
310.604	19.54
310.737	-5.46
310.869	12.54
311.002	-1.46
311.135	-16.46
311.267	-26.46
311.4	-4.46
311.533	13.54
311.665	8.54
311.798	-0.46
311.93	18.54
312.063	44.54
312.196	46.54
312.328	81.54
312.461	52.54
312.593	22.54
312.726	54.54
312.859	92.54
312.991	159.54
313.124	47.54
313.256	23.54
313.389	7.54
313.521	10.54
313.654	-6.46
313.786	-11.46
313.919	-0.46
314.051	-1.46
314.184	4.54
314.316	10.54
314.449	-8.46
314.581	15.54
314.714	-6.46
314.846	15.54
314.978	2.54
315.111	-7.46
315.243	9.54
315.376	11.54
315.508	18.54
315.641	10.54
315.773	38.54
315.905	13.54
316.038	14.54
316.17	-12.46
316.302	-3.46
316.435	13.54
316.567	4.54
316.699	34.54
316.832	6.54
316.964	10.54
317.096	1.54
317.229	-1.46
317.361	-22.46
317.493	6.54
317.625	5.54
317.758	25.54
317.89	13.54
318.022	-8.46
318.155	-14.46
318.287	22.54
318.419	8.54
318.551	8.54
318.683	-5.46
318.816	-0.46
318.948	-2.46
319.08	5.54
319.212	11.54
319.344	10.54
319.477	5.54
319.609	4.54
319.741	6.54
319.873	-17.46
320.005	12.54
320.137	16.54
320.269	0.54
320.401	2.54
320.534	7.54
320.666	3.54
320.798	-13.46
320.93	-10.46
321.062	4.54
321.194	-2.46
321.326	-2.46
321.458	13.54
321.59	7.54
321.722	-14.46
321.854	-6.46
321.986	-1.46
322.118	11.54
322.25	7.54
322.382	-2.46
322.514	1.54
322.646	7.54
322.778	32.54
322.91	-1.46
323.042	4.54
323.174	2.54
323.306	4.54
323.438	-7.46
323.57	6.54
323.702	22.54
323.834	4.54
323.966	-12.46
324.097	13.54
324.229	18.54
324.361	14.54
324.493	8.54
324.625	-3.46
324.757	11.54
324.889	1.54
325.021	3.54
325.152	17.54
325.284	20.54
325.416	2.54
325.548	11.54
325.68	12.54
325.811	28.54
325.943	19.54
326.075	10.54
326.207	19.54
326.339	9.54
326.47	-13.46
326.602	15.54
326.734	20.54
326.866	15.54
326.997	-6.46
327.129	10.54
327.261	-6.46
327.392	4.54
327.524	-1.46
327.656	9.54
327.787	-3.46
327.919	22.54
328.051	10.54
328.182	24.54
328.314	32.54
328.446	9.54
328.577	39.54
328.709	5.54
328.841	-9.46
328.972	-14.46
329.104	-3.46
329.235	0.54
329.367	4.54
329.499	-3.46
329.63	7.54
329.762	7.54
329.893	5.54
330.025	7.54
330.156	2.54
330.288	29.54
330.419	13.54
330.551	11.54
330.683	17.54
330.814	-6.46
330.946	7.54
331.077	-20.46
331.208	-4.46
331.34	-3.46
331.471	3.54
331.603	-2.46
331.734	-9.46
331.866	-8.46
331.997	23.54
332.129	11.54
332.26	13.54
332.392	15.54
332.523	7.54
332.654	2.54
332.786	1.54
332.917	12.54
333.048	28.54
333.18	39.54
333.311	11.54
333.443	10.54
333.574	10.54
333.705	46.54
333.837	39.54
333.968	98.54
334.099	245.54
334.231	215.54
334.362	70.54
334.493	10.54
334.624	15.54
334.756	23.54
334.887	16.54
335.018	11.54
335.15	24.54
335.281	-6.46
335.412	31.54
335.543	19.54
335.675	14.54
335.806	20.54
335.937	13.54
336.068	29.54
336.199	37.54
336.331	17.54
336.462	11.54
336.593	18.54
336.724	0.54
336.855	10.54
336.986	27.54
337.118	16.54
337.249	9.54
337.38	16.54
337.511	18.54
337.642	15.54
337.773	14.54
337.904	9.54
338.035	24.54
338.166	10.54
338.298	13.54
338.429	-1.46
338.56	8.54
338.691	21.54
338.822	8.54
338.953	19.54
339.084	18.54
339.215	30.54
339.346	7.54
339.477	16.54
339.608	-5.46
339.739	6.54
339.87	4.54
340.001	-5.46
340.132	23.54
340.263	16.54
340.394	22.54
340.525	23.54
340.656	15.54
340.787	-1.46
340.918	36.54
341.049	8.54
341.179	19.54
341.31	22.54
341.441	17.54
341.572	35.54
341.703	26.54
341.834	9.54
341.965	25.54
342.096	17.54
342.227	14.54
342.357	25.54
342.488	26.54
342.619	-1.46
342.75	22.54
342.881	20.54
343.012	34.54
343.142	44.54
343.273	0.54
343.404	26.54
343.535	53.54
343.666	38.54
343.796	43.54
343.927	32.54
344.058	26.54
344.189	29.54
344.319	8.54
344.45	26.54
344.581	20.54
344.712	13.54
344.842	14.54
344.973	26.54
345.104	42.54
345.234	16.54
345.365	-2.46
345.496	26.54
345.626	38.54
345.757	31.54
345.888	10.54
346.018	26.54
346.149	26.54
346.28	45.54
346.41	11.54
346.541	61.54
346.672	17.54
346.802	28.54
346.933	27.54
347.063	26.54
347.194	30.54
347.325	27.54
347.455	44.54
347.586	43.54
347.716	17.54
347.847	28.54
347.977	35.54
348.108	52.54
348.238	42.54
348.369	41.54
348.499	42.54
348.63	37.54
348.76	41.54
348.891	48.54
349.021	60.54
349.152	45.54
349.282	64.54
349.413	43.54
349.543	41.54
349.674	24.54
349.804	54.54
349.935	31.54
350.065	27.54
350.196	41.54
350.326	30.54
350.456	28.54
350.587	36.54
350.717	28.54
350.848	28.54
350.978	42.54
351.108	8.54
351.239	41.54
351.369	29.54
351.499	21.54
351.63	25.54
351.76	16.54
351.89	20.54
352.021	26.54
352.151	19.54
352.281	27.54
352.412	27.54
352.542	37.54
352.672	17.54
352.803	22.54
352.933	23.54
353.063	28.54
353.193	26.54
353.324	23.54
353.454	15.54
353.584	25.54
353.714	10.54
353.845	8.54
353.975	14.54
354.105	25.54
354.235	16.54
354.365	17.54
354.496	28.54
354.626	46.54
354.756	26.54
354.886	15.54
355.016	28.54
355.146	0.54
355.277	30.54
355.407	28.54
355.537	24.54
355.667	33.54
355.797	17.54
355.927	21.54
356.057	31.54
356.187	19.54
356.318	26.54
356.448	36.54
356.578	30.54
356.708	40.54
356.838	25.54
356.968	33.54
357.098	33.54
357.228	34.54
357.358	13.54
357.488	18.54
357.618	65.54
357.748	52.54
357.878	4.54
358.008	2.54
358.138	36.54
358.268	17.54
358.398	33.54
358.528	7.54
358.658	34.54
358.788	5.54
358.918	29.54
359.048	50.54
359.178	44.54
359.308	29.54
359.438	43.54
359.568	39.54
359.698	22.54
359.827	18.54
359.957	28.54
360.087	41.54
360.217	36.54
360.347	42.54
360.477	45.54
360.607	16.54
360.737	40.54
360.866	15.54
360.996	19.54
361.126	23.54
361.256	31.54
361.386	34.54
361.516	45.54
361.645	28.54
361.775	33.54
361.905	23.54
362.035	43.54
362.165	50.54
362.294	44.54
362.424	56.54
362.554	37.54
362.684	29.54
362.813	55.54
362.943	60.54
363.073	43.54
363.203	60.54
363.332	78.54
363.462	74.54
363.592	109.54
363.721	119.54
363.851	149.54
363.981	229.54
364.111	237.54
364.24	318.54
364.37	486.54
364.5	845.54
364.629	1775.54
364.759	3781.54
364.888	6161.54
365.018	9287.54
365.148	14759.54
365.277	12852.54
365.407	4683.54
365.537	3085.54
365.666	3918.54
365.796	1797.54
365.925	799.54
366.055	749.54
366.184	1014.54
366.314	1403.54
366.444	2427.54
366.573	2052.54
366.703	639.54
366.832	209.54
366.962	118.54
367.091	90.54
367.221	73.54
367.35	63.54
367.48	83.54
367.609	46.54
367.739	57.54
367.868	49.54
367.998	56.54
368.127	46.54
368.257	58.54
368.386	72.54
368.516	48.54
368.645	40.54
368.775	58.54
368.904	29.54
369.033	40.54
369.163	36.54
369.292	28.54
369.422	46.54
369.551	44.54
369.68	29.54
369.81	36.54
369.939	22.54
370.069	63.54
370.198	37.54
370.327	36.54
370.457	29.54
370.586	56.54
370.715	48.54
370.845	36.54
370.974	54.54
371.103	53.54
371.233	35.54
371.362	31.54
371.491	29.54
371.621	41.54
371.75	50.54
371.879	45.54
372.008	59.54
372.138	67.54
372.267	81.54
372.396	57.54
372.525	50.54
372.655	36.54
372.784	12.54
372.913	22.54
373.042	48.54
373.172	45.54
373.301	18.54
373.43	12.54
373.559	25.54
373.688	27.54
373.818	34.54
373.947	41.54
374.076	6.54
374.205	41.54
374.334	39.54
374.463	11.54
374.593	26.54
374.722	23.54
374.851	42.54
374.98	7.54
375.109	23.54
375.238	32.54
375.367	44.54
375.496	2.54
375.625	30.54
375.755	40.54
375.884	34.54
376.013	34.54
376.142	8.54
376.271	15.54
376.4	31.54
376.529	25.54
376.658	36.54
376.787	24.54
376.916	46.54
377.045	28.54
377.174	25.54
377.303	30.54
377.432	31.54
377.561	15.54
377.69	20.54
377.819	62.54
377.948	12.54
378.077	20.54
378.206	9.54
378.335	7.54
378.464	19.54
378.593	60.54
378.722	8.54
378.851	19.54
378.98	37.54
379.108	17.54
379.237	10.54
379.366	21.54
379.495	29.54
379.624	19.54
379.753	2.54
379.882	24.54
380.011	14.54
380.14	12.54
380.268	10.54
380.397	15.54
380.526	25.54
380.655	23.54
380.784	6.54
380.913	1.54
381.041	24.54
381.17	10.54
381.299	11.54
381.428	34.54
381.557	6.54
381.685	45.54
381.814	33.54
381.943	35.54
382.072	1.54
382.2	12.54
382.329	1.54
382.458	16.54
382.587	35.54
382.715	21.54
382.844	17.54
382.973	11.54
383.102	2.54
383.23	25.54
383.359	9.54
383.488	26.54
383.616	1.54
383.745	18.54
383.874	8.54
384.003	17.54
384.131	-0.46
384.26	8.54
384.389	16.54
384.517	-8.46
384.646	-1.46
384.774	16.54
384.903	27.54
385.032	40.54
385.16	25.54
385.289	11.54
385.418	14.54
385.546	29.54
385.675	44.54
385.803	40.54
385.932	34.54
386.06	11.54
386.189	8.54
386.318	17.54
386.446	-3.46
386.575	32.54
386.703	30.54
386.832	23.54
386.96	1.54
387.089	35.54
387.217	27.54
387.346	4.54
387.474	25.54
387.603	20.54
387.731	18.54
387.86	37.54
387.988	12.54
388.117	28.54
388.245	16.54
388.374	12.54
388.502	31.54
388.631	25.54
388.759	20.54
388.888	28.54
389.016	16.54
389.144	19.54
389.273	12.54
389.401	21.54
389.53	3.54
389.658	39.54
389.786	8.54
389.915	23.54
390.043	40.54
390.172	18.54
390.3	42.54
390.428	54.54
390.557	25.54
390.685	33.54
390.813	29.54
390.942	31.54
391.07	39.54
391.198	22.54
391.327	32.54
391.455	19.54
391.583	23.54
391.712	32.54
391.84	15.54
391.968	22.54
392.096	19.54
392.225	30.54
392.353	33.54
392.481	33.54
392.609	41.54
392.738	19.54
392.866	25.54
392.994	12.54
393.122	37.54
393.251	30.54
393.379	15.54
393.507	6.54
393.635	2.54
393.764	26.54
393.892	28.54
394.02	28.54
394.148	28.54
394.276	26.54
394.404	38.54
394.533	18.54
394.661	21.54
394.789	37.54
394.917	39.54
395.045	20.54
395.173	15.54
395.302	17.54
395.43	24.54
395.558	45.54
395.686	26.54
395.814	43.54
395.942	18.54
396.07	31.54
396.198	32.54
396.326	34.54
396.454	55.54
396.582	31.54
396.711	9.54
396.839	41.54
396.967	23.54
397.095	18.54
397.223	10.54
397.351	47.54
397.479	44.54
397.607	33.54
397.735	34.54
397.863	60.54
397.991	37.54
398.119	41.54
398.247	46.54
398.375	58.54
398.503	51.54
398.631	41.54
398.759	52.54
398.887	57.54
399.015	52.54
399.143	67.54
399.271	73.54
399.399	65.54
399.526	67.54
399.654	74.54
399.782	71.54
399.91	98.54
400.038	89.54
400.166	78.54
400.294	94.54
400.422	99.54
400.55	108.54
400.678	109.54
400.805	122.54
400.933	127.54
401.061	117.54
401.189	123.54
401.317	132.54
401.445	106.54
401.573	70.54
401.7	52.54
401.828	48.54
401.956	45.54
402.084	48.54
402.212	48.54
402.34	28.54
402.467	27.54
402.595	42.54
402.723	55.54
402.851	48.54
402.978	48.54
403.106	72.54
403.234	84.54
403.362	115.54
403.489	142.54
403.617	140.54
403.745	192.54
403.873	285.54
404	573.54
404.128	1456.54
404.256	3845.54
404.384	5018.54
404.511	5335.54
404.639	7092.54
404.767	11207.54
404.894	14508.54
405.022	4840.54
405.15	1283.54
405.277	433.54
405.405	242.54
405.533	126.54
405.66	103.54
405.788	59.54
405.916	65.54
406.043	49.54
406.171	61.54
406.299	46.54
406.426	64.54
406.554	47.54
406.681	89.54
406.809	53.54
406.937	70.54
407.064	60.54
407.192	142.54
407.319	298.54
407.447	519.54
407.574	541.54
407.702	621.54
407.83	836.54
407.957	1608.54
408.085	943.54
408.212	281.54
408.34	79.54
408.467	59.54
408.595	71.54
408.722	61.54
408.85	50.54
408.977	32.54
409.105	41.54
409.232	38.54
409.36	38.54
409.487	37.54
409.615	35.54
409.742	50.54
409.87	33.54
409.997	44.54
410.125	39.54
410.252	51.54
410.379	43.54
410.507	52.54
410.634	34.54
410.762	12.54
410.889	49.54
411.017	29.54
411.144	46.54
411.271	37.54
411.399	37.54
411.526	28.54
411.653	34.54
411.781	51.54
411.908	34.54
412.036	30.54
412.163	34.54
412.29	42.54
412.418	20.54
412.545	41.54
412.672	34.54
412.8	49.54
412.927	35.54
413.054	51.54
413.182	46.54
413.309	38.54
413.436	15.54
413.564	23.54
413.691	43.54
413.818	40.54
413.945	12.54
414.073	28.54
414.2	19.54
414.327	26.54
414.454	27.54
414.582	40.54
414.709	25.54
414.836	29.54
414.963	31.54
415.091	36.54
415.218	20.54
415.345	23.54
415.472	34.54
415.6	20.54
415.727	24.54
415.854	17.54
415.981	28.54
416.108	24.54
416.236	20.54
416.363	30.54
416.49	24.54
416.617	38.54
416.744	32.54
416.871	40.54
416.998	24.54
417.126	38.54
417.253	16.54
417.38	24.54
417.507	43.54
417.634	28.54
417.761	34.54
417.888	38.54
418.015	30.54
418.143	24.54
418.27	58.54
418.397	48.54
418.524	33.54
418.651	32.54
418.778	43.54
418.905	60.54
419.032	46.54
419.159	35.54
