Data from LowRes_mercury_15_20_11_07_2024_HR4C61881__67__15-23-38-970.txt Node

Date: Thu Nov 07 15:23:38 EST 2024
User: crc00042
Spectrometer: HR4C6188
Trigger mode: 4
Integration Time (sec): 1.000000E-1
Scans to average: 1
Electric dark correction enabled: true
Nonlinearity correction enabled: false
Boxcar width: 0
XAxis mode: Wavelengths
Number of Pixels in Spectrum: 3648
>>>>>Begin Spectral Data<<<<<
245.66	-77.92
245.797	-77.92
245.934	-77.92
246.071	-63.92
246.208	25.08
246.344	-8.92
246.481	-13.92
246.618	-3.92
246.755	33.08
246.892	18.08
247.029	-7.92
247.165	-11.92
247.302	10.08
247.439	-12.92
247.576	-3.92
247.713	-15.92
247.849	28.08
247.986	-9.92
248.123	-11.92
248.26	-14.92
248.396	6.08
248.533	-17.92
248.67	-15.92
248.806	1.08
248.943	-15.92
249.08	11.08
249.216	15.08
249.353	-4.92
249.49	4.08
249.626	2.08
249.763	2.08
249.9	-17.92
250.036	4.08
250.173	13.08
250.309	-0.92
250.446	8.08
250.582	-4.92
250.719	-1.92
250.856	-8.92
250.992	-3.92
251.129	7.08
251.265	-5.92
251.402	10.08
251.538	3.08
251.675	18.08
251.811	6.08
251.948	19.08
252.084	-2.92
252.221	14.08
252.357	10.08
252.493	27.08
252.63	5.08
252.766	5.08
252.903	-10.92
253.039	-6.92
253.175	-8.92
253.312	1.08
253.448	1.08
253.585	-21.92
253.721	-0.92
253.857	10.08
253.994	-4.92
254.13	4.08
254.266	-2.92
254.403	5.08
254.539	-8.92
254.675	8.08
254.811	7.08
254.948	-4.92
255.084	-13.92
255.22	-8.92
255.356	-15.92
255.493	-1.92
255.629	4.08
255.765	8.08
255.901	13.08
256.037	9.08
256.174	-16.92
256.31	-11.92
256.446	0.08
256.582	2.08
256.718	-7.92
256.854	17.08
256.991	-3.92
257.127	16.08
257.263	21.08
257.399	-1.92
257.535	-18.92
257.671	12.08
257.807	-11.92
257.943	-15.92
258.079	-15.92
258.215	1.08
258.351	19.08
258.487	16.08
258.623	11.08
258.759	7.08
258.895	-13.92
259.031	5.08
259.167	-14.92
259.303	30.08
259.439	5.08
259.575	-17.92
259.711	-15.92
259.847	-7.92
259.983	8.08
260.119	-9.92
260.255	-14.92
260.391	-5.92
260.527	8.08
260.663	10.08
260.799	-3.92
260.934	1.08
261.07	-15.92
261.206	-25.92
261.342	-28.92
261.478	6.08
261.614	-1.92
261.749	21.08
261.885	1.08
262.021	9.08
262.157	10.08
262.293	-13.92
262.428	-13.92
262.564	-7.92
262.7	4.08
262.836	0.08
262.971	18.08
263.107	0.08
263.243	19.08
263.378	8.08
263.514	-23.92
263.65	-13.92
263.785	-21.92
263.921	-1.92
264.057	10.08
264.192	7.08
264.328	15.08
264.464	0.08
264.599	23.08
264.735	14.08
264.871	-2.92
265.006	13.08
265.142	-19.92
265.277	-1.92
265.413	0.08
265.548	-10.92
265.684	-3.92
265.819	-12.92
265.955	-17.92
266.091	-19.92
266.226	-14.92
266.362	3.08
266.497	20.08
266.633	-0.92
266.768	19.08
266.903	7.08
267.039	6.08
267.174	25.08
267.31	-5.92
267.445	-1.92
267.581	-10.92
267.716	-4.92
267.851	6.08
267.987	11.08
268.122	2.08
268.258	-0.92
268.393	-5.92
268.528	14.08
268.664	-12.92
268.799	-22.92
268.934	-0.92
269.07	8.08
269.205	10.08
269.34	30.08
269.476	-1.92
269.611	-13.92
269.746	26.08
269.881	7.08
270.017	18.08
270.152	12.08
270.287	-5.92
270.422	6.08
270.558	-2.92
270.693	-3.92
270.828	2.08
270.963	14.08
271.098	-11.92
271.234	-12.92
271.369	21.08
271.504	2.08
271.639	-21.92
271.774	-13.92
271.909	-10.92
272.045	-26.92
272.18	-20.92
272.315	-6.92
272.45	6.08
272.585	7.08
272.72	1.08
272.855	-6.92
272.99	20.08
273.125	-22.92
273.26	-15.92
273.395	-33.92
273.53	3.08
273.665	10.08
273.8	5.08
273.935	-8.92
274.07	0.08
274.205	-2.92
274.34	-12.92
274.475	-0.92
274.61	20.08
274.745	5.08
274.88	6.08
275.015	-13.92
275.15	-7.92
275.285	11.08
275.42	-14.92
275.555	1.08
275.69	-13.92
275.825	8.08
275.959	-0.92
276.094	0.08
276.229	-3.92
276.364	-13.92
276.499	1.08
276.634	-15.92
276.768	1.08
276.903	16.08
277.038	21.08
277.173	-1.92
277.308	-6.92
277.442	-17.92
277.577	-12.92
277.712	-2.92
277.847	-6.92
277.981	-0.92
278.116	-11.92
278.251	-3.92
278.386	16.08
278.52	-7.92
278.655	7.08
278.79	1.08
278.924	1.08
279.059	-7.92
279.194	-18.92
279.328	21.08
279.463	7.08
279.598	37.08
279.732	9.08
279.867	10.08
280.001	15.08
280.136	5.08
280.271	5.08
280.405	-7.92
280.54	7.08
280.674	-17.92
280.809	2.08
280.943	-10.92
281.078	6.08
281.213	16.08
281.347	21.08
281.482	3.08
281.616	7.08
281.751	-11.92
281.885	-24.92
282.02	-22.92
282.154	24.08
282.288	-12.92
282.423	-6.92
282.557	-1.92
282.692	-8.92
282.826	-3.92
282.961	7.08
283.095	-0.92
283.229	0.08
283.364	-1.92
283.498	-6.92
283.633	2.08
283.767	-9.92
283.901	2.08
284.036	-0.92
284.17	9.08
284.304	-2.92
284.439	-1.92
284.573	-20.92
284.707	13.08
284.842	-11.92
284.976	-4.92
285.11	0.08
285.244	9.08
285.379	36.08
285.513	-17.92
285.647	20.08
285.781	-14.92
285.916	22.08
286.05	12.08
286.184	40.08
286.318	5.08
286.453	-30.92
286.587	-11.92
286.721	-13.92
286.855	2.08
286.989	3.08
287.123	-8.92
287.258	-32.92
287.392	-5.92
287.526	-3.92
287.66	-7.92
287.794	-12.92
287.928	-8.92
288.062	1.08
288.196	-20.92
288.33	-6.92
288.464	12.08
288.598	-0.92
288.733	-10.92
288.867	2.08
289.001	9.08
289.135	16.08
289.269	6.08
289.403	8.08
289.537	0.08
289.671	-0.92
289.805	-3.92
289.939	10.08
290.073	-5.92
290.207	22.08
290.34	-1.92
290.474	1.08
290.608	31.08
290.742	-2.92
290.876	-17.92
291.01	-17.92
291.144	14.08
291.278	9.08
291.412	9.08
291.546	5.08
291.679	-26.92
291.813	-4.92
291.947	5.08
292.081	-21.92
292.215	-23.92
292.349	6.08
292.482	16.08
292.616	-4.92
292.75	-5.92
292.884	-4.92
293.018	0.08
293.151	-16.92
293.285	-1.92
293.419	-16.92
293.553	0.08
293.686	-0.92
293.82	8.08
293.954	7.08
294.088	7.08
294.221	-4.92
294.355	4.08
294.489	-1.92
294.622	-4.92
294.756	11.08
294.89	10.08
295.023	12.08
295.157	12.08
295.291	22.08
295.424	27.08
295.558	1.08
295.691	10.08
295.825	6.08
295.959	-7.92
296.092	-19.92
296.226	13.08
296.359	18.08
296.493	4.08
296.627	8.08
296.76	-0.92
296.894	5.08
297.027	-1.92
297.161	-3.92
297.294	-6.92
297.428	9.08
297.561	33.08
297.695	-13.92
297.828	-3.92
297.962	-8.92
298.095	-21.92
298.229	-24.92
298.362	-15.92
298.495	-16.92
298.629	-6.92
298.762	0.08
298.896	-3.92
299.029	-13.92
299.162	-4.92
299.296	17.08
299.429	-3.92
299.563	-8.92
299.696	6.08
299.829	-3.92
299.963	11.08
300.096	9.08
300.229	17.08
300.363	-10.92
300.496	12.08
300.629	-5.92
300.763	-12.92
300.896	0.08
301.029	-9.92
301.162	-4.92
301.296	-23.92
301.429	-3.92
301.562	-13.92
301.695	-5.92
301.829	4.08
301.962	-8.92
302.095	1.08
302.228	1.08
302.362	16.08
302.495	2.08
302.628	12.08
302.761	-5.92
302.894	14.08
303.027	4.08
303.161	-19.92
303.294	-23.92
303.427	9.08
303.56	-7.92
303.693	9.08
303.826	9.08
303.959	-5.92
304.092	0.08
304.225	7.08
304.359	7.08
304.492	4.08
304.625	-3.92
304.758	8.08
304.891	5.08
305.024	13.08
305.157	-5.92
305.29	-1.92
305.423	-6.92
305.556	2.08
305.689	16.08
305.822	10.08
305.955	-10.92
306.088	-4.92
306.221	15.08
306.354	-2.92
306.487	-14.92
306.62	-32.92
306.752	-10.92
306.885	-4.92
307.018	-3.92
307.151	17.08
307.284	-12.92
307.417	-20.92
307.55	10.08
307.683	5.08
307.816	14.08
307.948	11.08
308.081	16.08
308.214	3.08
308.347	32.08
308.48	-14.92
308.613	-17.92
308.745	-2.92
308.878	-9.92
309.011	-4.92
309.144	3.08
309.277	-14.92
309.409	2.08
309.542	4.08
309.675	27.08
309.808	15.08
309.94	14.08
310.073	3.08
310.206	-3.92
310.339	9.08
310.471	-14.92
310.604	35.08
310.737	-21.92
310.869	-5.92
311.002	-7.92
311.135	2.08
311.267	-41.92
311.4	-18.92
311.533	7.08
311.665	13.08
311.798	0.08
311.93	-0.92
312.063	9.08
312.196	36.08
312.328	68.08
312.461	47.08
312.593	20.08
312.726	31.08
312.859	86.08
312.991	157.08
313.124	32.08
313.256	29.08
313.389	-6.92
313.521	-1.92
313.654	-10.92
313.786	-25.92
313.919	-9.92
314.051	7.08
314.184	-2.92
314.316	14.08
314.449	-14.92
314.581	-6.92
314.714	-8.92
314.846	-23.92
314.978	-20.92
315.111	-17.92
315.243	-7.92
315.376	-0.92
315.508	10.08
315.641	3.08
315.773	3.08
315.905	6.08
316.038	11.08
316.17	13.08
316.302	8.08
316.435	6.08
316.567	8.08
316.699	12.08
316.832	-13.92
316.964	16.08
317.096	-6.92
317.229	-8.92
317.361	-16.92
317.493	1.08
317.625	-12.92
317.758	16.08
317.89	24.08
318.022	-5.92
318.155	-14.92
318.287	11.08
318.419	-2.92
318.551	-8.92
318.683	-8.92
318.816	-0.92
318.948	-17.92
319.08	-12.92
319.212	6.08
319.344	8.08
319.477	-10.92
319.609	17.08
319.741	8.08
319.873	2.08
320.005	-3.92
320.137	8.08
320.269	7.08
320.401	-8.92
320.534	-13.92
320.666	-8.92
320.798	-6.92
320.93	5.08
321.062	1.08
321.194	-3.92
321.326	5.08
321.458	4.08
321.59	-1.92
321.722	-12.92
321.854	0.08
321.986	1.08
322.118	2.08
322.25	-18.92
322.382	-4.92
322.514	-3.92
322.646	-11.92
322.778	18.08
322.91	-6.92
323.042	5.08
323.174	8.08
323.306	13.08
323.438	-17.92
323.57	-6.92
323.702	-16.92
323.834	2.08
323.966	-21.92
324.097	1.08
324.229	7.08
324.361	8.08
324.493	8.08
324.625	-8.92
324.757	4.08
324.889	-17.92
325.021	6.08
325.152	17.08
325.284	22.08
325.416	-2.92
325.548	26.08
325.68	-2.92
325.811	30.08
325.943	13.08
326.075	-7.92
326.207	9.08
326.339	6.08
326.47	5.08
326.602	12.08
326.734	29.08
326.866	3.08
326.997	-17.92
327.129	-5.92
327.261	-14.92
327.392	-20.92
327.524	-6.92
327.656	-9.92
327.787	12.08
327.919	-9.92
328.051	-1.92
328.182	20.08
328.314	30.08
328.446	2.08
328.577	19.08
328.709	6.08
328.841	-8.92
328.972	0.08
329.104	-21.92
329.235	-7.92
329.367	-9.92
329.499	-5.92
329.63	8.08
329.762	6.08
329.893	-11.92
330.025	5.08
330.156	4.08
330.288	13.08
330.419	2.08
330.551	17.08
330.683	16.08
330.814	5.08
330.946	8.08
331.077	-1.92
331.208	-11.92
331.34	-6.92
331.471	1.08
331.603	-1.92
331.734	-19.92
331.866	14.08
331.997	-12.92
332.129	-3.92
332.26	2.08
332.392	9.08
332.523	-1.92
332.654	-9.92
332.786	13.08
332.917	2.08
333.048	4.08
333.18	20.08
333.311	11.08
333.443	5.08
333.574	7.08
333.705	22.08
333.837	46.08
333.968	107.08
334.099	228.08
334.231	207.08
334.362	37.08
334.493	29.08
334.624	36.08
334.756	29.08
334.887	-0.92
335.018	11.08
335.15	22.08
335.281	13.08
335.412	0.08
335.543	6.08
335.675	19.08
335.806	9.08
335.937	-1.92
336.068	7.08
336.199	20.08
336.331	-6.92
336.462	-18.92
336.593	10.08
336.724	6.08
336.855	10.08
336.986	26.08
337.118	3.08
337.249	25.08
337.38	6.08
337.511	4.08
337.642	10.08
337.773	23.08
337.904	6.08
338.035	26.08
338.166	17.08
338.298	9.08
338.429	-1.92
338.56	23.08
338.691	9.08
338.822	5.08
338.953	21.08
339.084	14.08
339.215	12.08
339.346	1.08
339.477	18.08
339.608	14.08
339.739	-1.92
339.87	16.08
340.001	8.08
340.132	4.08
340.263	3.08
340.394	5.08
340.525	3.08
340.656	20.08
340.787	-1.92
340.918	25.08
341.049	14.08
341.179	18.08
341.31	9.08
341.441	8.08
341.572	-10.92
341.703	11.08
341.834	5.08
341.965	21.08
342.096	8.08
342.227	11.08
342.357	5.08
342.488	-2.92
342.619	21.08
342.75	5.08
342.881	5.08
343.012	13.08
343.142	32.08
343.273	2.08
343.404	24.08
343.535	39.08
343.666	43.08
343.796	47.08
343.927	37.08
344.058	45.08
344.189	37.08
344.319	32.08
344.45	21.08
344.581	24.08
344.712	2.08
344.842	11.08
344.973	16.08
345.104	24.08
345.234	14.08
345.365	23.08
345.496	11.08
345.626	15.08
345.757	29.08
345.888	-1.92
346.018	23.08
346.149	28.08
346.28	50.08
346.41	7.08
346.541	18.08
346.672	17.08
346.802	27.08
346.933	26.08
347.063	29.08
347.194	20.08
347.325	12.08
347.455	36.08
347.586	21.08
347.716	20.08
347.847	32.08
347.977	39.08
348.108	30.08
348.238	29.08
348.369	36.08
348.499	58.08
348.63	43.08
348.76	56.08
348.891	50.08
349.021	57.08
349.152	53.08
349.282	60.08
349.413	56.08
349.543	43.08
349.674	16.08
349.804	33.08
349.935	21.08
350.065	24.08
350.196	24.08
350.326	33.08
350.456	14.08
350.587	32.08
350.717	35.08
350.848	10.08
350.978	13.08
351.108	-9.92
351.239	27.08
351.369	18.08
351.499	19.08
351.63	28.08
351.76	4.08
351.89	7.08
352.021	33.08
352.151	18.08
352.281	19.08
352.412	41.08
352.542	28.08
352.672	4.08
352.803	14.08
352.933	17.08
353.063	11.08
353.193	23.08
353.324	13.08
353.454	34.08
353.584	25.08
353.714	2.08
353.845	19.08
353.975	-0.92
354.105	5.08
354.235	17.08
354.365	33.08
354.496	13.08
354.626	17.08
354.756	20.08
354.886	13.08
355.016	29.08
355.146	24.08
355.277	23.08
355.407	8.08
355.537	3.08
355.667	22.08
355.797	41.08
355.927	13.08
356.057	35.08
356.187	22.08
356.318	21.08
356.448	12.08
356.578	28.08
356.708	36.08
356.838	32.08
356.968	43.08
357.098	39.08
357.228	25.08
357.358	17.08
357.488	10.08
357.618	50.08
357.748	34.08
357.878	29.08
358.008	15.08
358.138	28.08
358.268	18.08
358.398	27.08
358.528	-0.92
358.658	13.08
358.788	31.08
358.918	42.08
359.048	33.08
359.178	28.08
359.308	46.08
359.438	26.08
359.568	58.08
359.698	51.08
359.827	12.08
359.957	14.08
360.087	29.08
360.217	23.08
360.347	47.08
360.477	39.08
360.607	23.08
360.737	34.08
360.866	38.08
360.996	30.08
361.126	19.08
361.256	43.08
361.386	28.08
361.516	39.08
361.645	17.08
361.775	15.08
361.905	10.08
362.035	31.08
362.165	26.08
362.294	23.08
362.424	50.08
362.554	24.08
362.684	26.08
362.813	38.08
362.943	42.08
363.073	51.08
363.203	62.08
363.332	76.08
363.462	81.08
363.592	100.08
363.721	114.08
363.851	177.08
363.981	194.08
364.111	229.08
364.24	305.08
364.37	483.08
364.5	826.08
364.629	1790.08
364.759	3819.08
364.888	6234.08
365.018	9331.08
365.148	14778.08
365.277	12865.08
365.407	4713.08
365.537	3083.08
365.666	3967.08
365.796	1794.08
365.925	765.08
366.055	746.08
366.184	1011.08
366.314	1390.08
366.444	2435.08
366.573	2084.08
366.703	654.08
366.832	205.08
366.962	95.08
367.091	77.08
367.221	85.08
367.35	53.08
367.48	86.08
367.609	53.08
367.739	74.08
367.868	36.08
367.998	28.08
368.127	52.08
368.257	47.08
368.386	45.08
368.516	40.08
368.645	41.08
368.775	33.08
368.904	29.08
369.033	24.08
369.163	22.08
369.292	38.08
369.422	42.08
369.551	42.08
369.68	35.08
369.81	45.08
369.939	25.08
370.069	52.08
370.198	38.08
370.327	33.08
370.457	26.08
370.586	29.08
370.715	33.08
370.845	16.08
370.974	36.08
371.103	47.08
371.233	49.08
371.362	28.08
371.491	24.08
371.621	48.08
371.75	32.08
371.879	18.08
372.008	40.08
372.138	60.08
372.267	57.08
372.396	60.08
372.525	36.08
372.655	50.08
372.784	14.08
372.913	17.08
373.042	19.08
373.172	38.08
373.301	0.08
373.43	-3.92
373.559	10.08
373.688	17.08
373.818	30.08
373.947	29.08
374.076	0.08
374.205	29.08
374.334	8.08
374.463	0.08
374.593	17.08
374.722	26.08
374.851	31.08
374.98	8.08
375.109	18.08
375.238	18.08
375.367	32.08
375.496	-10.92
375.625	-3.92
375.755	12.08
375.884	30.08
376.013	22.08
376.142	-9.92
376.271	6.08
376.4	24.08
376.529	33.08
376.658	28.08
376.787	19.08
376.916	34.08
377.045	18.08
377.174	22.08
377.303	7.08
377.432	43.08
377.561	24.08
377.69	18.08
377.819	53.08
377.948	24.08
378.077	-0.92
378.206	11.08
378.335	2.08
378.464	24.08
378.593	27.08
378.722	14.08
378.851	20.08
378.98	29.08
379.108	7.08
379.237	1.08
379.366	21.08
379.495	17.08
379.624	12.08
379.753	3.08
379.882	21.08
380.011	-5.92
380.14	10.08
380.268	14.08
380.397	-1.92
380.526	26.08
380.655	0.08
380.784	-9.92
380.913	-11.92
381.041	4.08
381.17	11.08
381.299	7.08
381.428	19.08
381.557	21.08
381.685	18.08
381.814	13.08
381.943	13.08
382.072	8.08
382.2	3.08
382.329	0.08
382.458	15.08
382.587	9.08
382.715	18.08
382.844	22.08
382.973	7.08
383.102	8.08
383.23	10.08
383.359	-0.92
383.488	40.08
383.616	8.08
383.745	12.08
383.874	20.08
384.003	13.08
384.131	-9.92
384.26	16.08
384.389	20.08
384.517	5.08
384.646	12.08
384.774	14.08
384.903	41.08
385.032	31.08
385.16	10.08
385.289	19.08
385.418	12.08
385.546	18.08
385.675	3.08
385.803	30.08
385.932	21.08
386.06	10.08
386.189	21.08
386.318	2.08
386.446	3.08
386.575	17.08
386.703	22.08
386.832	23.08
386.96	-15.92
387.089	11.08
387.217	19.08
387.346	16.08
387.474	39.08
387.603	9.08
387.731	26.08
387.86	39.08
387.988	22.08
388.117	32.08
388.245	35.08
388.374	18.08
388.502	28.08
388.631	12.08
388.759	18.08
388.888	34.08
389.016	-5.92
389.144	16.08
389.273	15.08
389.401	-5.92
389.53	2.08
389.658	21.08
389.786	8.08
389.915	10.08
390.043	2.08
390.172	25.08
390.3	45.08
390.428	56.08
390.557	25.08
390.685	43.08
390.813	38.08
390.942	29.08
391.07	10.08
391.198	22.08
391.327	23.08
391.455	3.08
391.583	44.08
391.712	32.08
391.84	25.08
391.968	18.08
392.096	10.08
392.225	25.08
392.353	32.08
392.481	23.08
392.609	29.08
392.738	15.08
392.866	29.08
392.994	11.08
393.122	36.08
393.251	12.08
393.379	0.08
393.507	11.08
393.635	13.08
393.764	27.08
393.892	42.08
394.02	17.08
394.148	13.08
394.276	17.08
394.404	37.08
394.533	7.08
394.661	32.08
394.789	46.08
394.917	25.08
395.045	18.08
395.173	1.08
395.302	13.08
395.43	8.08
395.558	29.08
395.686	27.08
395.814	36.08
395.942	18.08
396.07	31.08
396.198	47.08
396.326	31.08
396.454	41.08
396.582	29.08
396.711	7.08
396.839	29.08
396.967	19.08
397.095	6.08
397.223	41.08
397.351	51.08
397.479	36.08
397.607	29.08
397.735	38.08
397.863	52.08
397.991	30.08
398.119	20.08
398.247	25.08
398.375	34.08
398.503	26.08
398.631	65.08
398.759	61.08
398.887	46.08
399.015	43.08
399.143	47.08
399.271	61.08
399.399	71.08
399.526	68.08
399.654	62.08
399.782	49.08
399.91	97.08
400.038	86.08
400.166	83.08
400.294	93.08
400.422	74.08
400.55	101.08
400.678	123.08
400.805	117.08
400.933	88.08
401.061	117.08
401.189	114.08
401.317	146.08
401.445	118.08
401.573	107.08
401.7	58.08
401.828	45.08
401.956	47.08
402.084	54.08
402.212	34.08
402.34	17.08
402.467	38.08
402.595	27.08
402.723	37.08
402.851	41.08
402.978	68.08
403.106	69.08
403.234	83.08
403.362	99.08
403.489	106.08
403.617	141.08
403.745	176.08
403.873	286.08
404	543.08
404.128	1410.08
404.256	3883.08
404.384	4980.08
404.511	5316.08
404.639	7117.08
404.767	11249.08
404.894	14560.08
405.022	4895.08
405.15	1289.08
405.277	407.08
405.405	250.08
405.533	121.08
405.66	128.08
405.788	45.08
405.916	43.08
406.043	37.08
406.171	46.08
406.299	48.08
406.426	49.08
406.554	50.08
406.681	61.08
406.809	51.08
406.937	69.08
407.064	41.08
407.192	101.08
407.319	297.08
407.447	501.08
407.574	542.08
407.702	619.08
407.83	851.08
407.957	1590.08
408.085	931.08
408.212	274.08
408.34	93.08
408.467	64.08
408.595	30.08
408.722	45.08
408.85	42.08
408.977	21.08
409.105	30.08
409.232	34.08
409.36	37.08
409.487	23.08
409.615	31.08
409.742	29.08
409.87	28.08
409.997	27.08
410.125	31.08
410.252	43.08
410.379	17.08
410.507	26.08
410.634	27.08
410.762	39.08
410.889	37.08
411.017	42.08
411.144	25.08
411.271	21.08
411.399	21.08
411.526	24.08
411.653	16.08
411.781	29.08
411.908	22.08
412.036	16.08
412.163	23.08
412.29	18.08
412.418	23.08
412.545	21.08
412.672	19.08
412.8	54.08
412.927	20.08
413.054	42.08
413.182	35.08
413.309	27.08
413.436	13.08
413.564	31.08
413.691	22.08
413.818	38.08
413.945	19.08
414.073	9.08
414.2	28.08
414.327	20.08
414.454	11.08
414.582	19.08
414.709	18.08
414.836	24.08
414.963	22.08
415.091	38.08
415.218	18.08
415.345	5.08
415.472	28.08
415.6	31.08
415.727	44.08
415.854	25.08
415.981	44.08
416.108	23.08
416.236	36.08
416.363	37.08
416.49	20.08
416.617	20.08
416.744	49.08
416.871	36.08
416.998	13.08
417.126	20.08
417.253	26.08
417.38	27.08
417.507	33.08
417.634	49.08
417.761	29.08
417.888	38.08
418.015	46.08
418.143	58.08
418.27	61.08
418.397	22.08
418.524	31.08
418.651	36.08
