Data from LowRes_mercury_15_20_11_07_2024_HR4C61881__63__15-23-38-570.txt Node

Date: Thu Nov 07 15:23:38 EST 2024
User: crc00042
Spectrometer: HR4C6188
Trigger mode: 4
Integration Time (sec): 1.000000E-1
Scans to average: 1
Electric dark correction enabled: true
Nonlinearity correction enabled: false
Boxcar width: 0
XAxis mode: Wavelengths
Number of Pixels in Spectrum: 3648
>>>>>Begin Spectral Data<<<<<
245.66	-55.31
245.797	-55.31
245.934	-55.31
246.071	-67.31
246.208	11.69
246.344	0.69
246.481	-9.31
246.618	-28.31
246.755	19.69
246.892	8.69
247.029	11.69
247.165	-10.31
247.302	9.69
247.439	11.69
247.576	-8.31
247.713	-19.31
247.849	16.69
247.986	-3.31
248.123	-4.31
248.26	-19.31
248.396	2.69
248.533	-5.31
248.67	-0.31
248.806	2.69
248.943	-16.31
249.08	-4.31
249.216	7.69
249.353	-8.31
249.49	-9.31
249.626	-19.31
249.763	5.69
249.9	-5.31
250.036	12.69
250.173	2.69
250.309	-5.31
250.446	1.69
250.582	9.69
250.719	-3.31
250.856	-6.31
250.992	-23.31
251.129	-1.31
251.265	5.69
251.402	-6.31
251.538	-0.31
251.675	-14.31
251.811	2.69
251.948	14.69
252.084	17.69
252.221	-1.31
252.357	-6.31
252.493	15.69
252.63	-0.31
252.766	6.69
252.903	11.69
253.039	1.69
253.175	-16.31
253.312	19.69
253.448	12.69
253.585	-1.31
253.721	22.69
253.857	11.69
253.994	17.69
254.13	5.69
254.266	1.69
254.403	1.69
254.539	9.69
254.675	35.69
254.811	6.69
254.948	1.69
255.084	-11.31
255.22	-12.31
255.356	9.69
255.493	17.69
255.629	-7.31
255.765	11.69
255.901	-0.31
256.037	-0.31
256.174	7.69
256.31	-18.31
256.446	-15.31
256.582	18.69
256.718	9.69
256.854	16.69
256.991	1.69
257.127	18.69
257.263	-12.31
257.399	3.69
257.535	-6.31
257.671	11.69
257.807	-4.31
257.943	-0.31
258.079	2.69
258.215	14.69
258.351	2.69
258.487	-4.31
258.623	-13.31
258.759	-5.31
258.895	-5.31
259.031	1.69
259.167	-29.31
259.303	22.69
259.439	17.69
259.575	-0.31
259.711	-1.31
259.847	6.69
259.983	5.69
260.119	2.69
260.255	-0.31
260.391	15.69
260.527	8.69
260.663	13.69
260.799	7.69
260.934	-2.31
261.07	0.69
261.206	-5.31
261.342	-8.31
261.478	23.69
261.614	-2.31
261.749	1.69
261.885	-1.31
262.021	-5.31
262.157	-3.31
262.293	-1.31
262.428	-20.31
262.564	-10.31
262.7	10.69
262.836	1.69
262.971	33.69
263.107	27.69
263.243	31.69
263.378	8.69
263.514	-0.31
263.65	12.69
263.785	-3.31
263.921	-3.31
264.057	9.69
264.192	2.69
264.328	13.69
264.464	-7.31
264.599	14.69
264.735	16.69
264.871	3.69
265.006	1.69
265.142	2.69
265.277	2.69
265.413	18.69
265.548	7.69
265.684	13.69
265.819	-3.31
265.955	-18.31
266.091	-4.31
266.226	-15.31
266.362	-9.31
266.497	3.69
266.633	-1.31
266.768	-7.31
266.903	11.69
267.039	10.69
267.174	20.69
267.31	-9.31
267.445	5.69
267.581	3.69
267.716	10.69
267.851	1.69
267.987	18.69
268.122	21.69
268.258	0.69
268.393	2.69
268.528	34.69
268.664	-4.31
268.799	-13.31
268.934	-0.31
269.07	12.69
269.205	7.69
269.34	35.69
269.476	15.69
269.611	-6.31
269.746	24.69
269.881	6.69
270.017	3.69
270.152	6.69
270.287	-10.31
270.422	8.69
270.558	8.69
270.693	3.69
270.828	-16.31
270.963	-4.31
271.098	2.69
271.234	-7.31
271.369	12.69
271.504	4.69
271.639	-5.31
271.774	-2.31
271.909	-4.31
272.045	-0.31
272.18	14.69
272.315	5.69
272.45	10.69
272.585	-13.31
272.72	-0.31
272.855	22.69
272.99	8.69
273.125	9.69
273.26	-10.31
273.395	-0.31
273.53	-8.31
273.665	4.69
273.8	6.69
273.935	-1.31
274.07	-10.31
274.205	17.69
274.34	12.69
274.475	-6.31
274.61	8.69
274.745	7.69
274.88	30.69
275.015	-3.31
275.15	14.69
275.285	10.69
275.42	-3.31
275.555	6.69
275.69	9.69
275.825	-1.31
275.959	-1.31
276.094	-2.31
276.229	-2.31
276.364	-11.31
276.499	-1.31
276.634	0.69
276.768	4.69
276.903	5.69
277.038	13.69
277.173	21.69
277.308	2.69
277.442	-7.31
277.577	-0.31
277.712	-8.31
277.847	2.69
277.981	11.69
278.116	-11.31
278.251	-9.31
278.386	13.69
278.52	20.69
278.655	11.69
278.79	22.69
278.924	14.69
279.059	1.69
279.194	-17.31
279.328	19.69
279.463	10.69
279.598	19.69
279.732	17.69
279.867	0.69
280.001	9.69
280.136	8.69
280.271	-1.31
280.405	23.69
280.54	30.69
280.674	0.69
280.809	17.69
280.943	-0.31
281.078	21.69
281.213	27.69
281.347	6.69
281.482	22.69
281.616	-1.31
281.751	0.69
281.885	-31.31
282.02	5.69
282.154	7.69
282.288	4.69
282.423	-22.31
282.557	-2.31
282.692	5.69
282.826	20.69
282.961	5.69
283.095	0.69
283.229	-2.31
283.364	0.69
283.498	13.69
283.633	-2.31
283.767	-5.31
283.901	6.69
284.036	-1.31
284.17	-3.31
284.304	6.69
284.439	10.69
284.573	5.69
284.707	10.69
284.842	1.69
284.976	-4.31
285.11	-10.31
285.244	-7.31
285.379	35.69
285.513	-21.31
285.647	-1.31
285.781	10.69
285.916	-1.31
286.05	-16.31
286.184	28.69
286.318	5.69
286.453	-11.31
286.587	-7.31
286.721	-9.31
286.855	-2.31
286.989	14.69
287.123	-14.31
287.258	-18.31
287.392	-10.31
287.526	6.69
287.66	4.69
287.794	-17.31
287.928	-6.31
288.062	2.69
288.196	17.69
288.33	12.69
288.464	24.69
288.598	8.69
288.733	-4.31
288.867	10.69
289.001	6.69
289.135	0.69
289.269	-8.31
289.403	-3.31
289.537	7.69
289.671	5.69
289.805	-7.31
289.939	18.69
290.073	10.69
290.207	19.69
290.34	5.69
290.474	28.69
290.608	18.69
290.742	1.69
290.876	-7.31
291.01	-10.31
291.144	21.69
291.278	21.69
291.412	-2.31
291.546	-4.31
291.679	-5.31
291.813	12.69
291.947	0.69
292.081	-2.31
292.215	-13.31
292.349	10.69
292.482	5.69
292.616	13.69
292.75	9.69
292.884	-0.31
293.018	-17.31
293.151	-40.31
293.285	15.69
293.419	-0.31
293.553	0.69
293.686	-16.31
293.82	10.69
293.954	32.69
294.088	24.69
294.221	11.69
294.355	-0.31
294.489	12.69
294.622	13.69
294.756	7.69
294.89	11.69
295.023	16.69
295.157	17.69
295.291	-2.31
295.424	15.69
295.558	-1.31
295.691	2.69
295.825	8.69
295.959	8.69
296.092	8.69
296.226	4.69
296.359	3.69
296.493	-0.31
296.627	4.69
296.76	12.69
296.894	14.69
297.027	11.69
297.161	1.69
297.294	-13.31
297.428	-5.31
297.561	34.69
297.695	-6.31
297.828	-10.31
297.962	-8.31
298.095	-15.31
298.229	8.69
298.362	-9.31
298.495	-1.31
298.629	-4.31
298.762	11.69
298.896	4.69
299.029	8.69
299.162	2.69
299.296	9.69
299.429	0.69
299.563	1.69
299.696	-1.31
299.829	9.69
299.963	10.69
300.096	30.69
300.229	9.69
300.363	9.69
300.496	1.69
300.629	-25.31
300.763	4.69
300.896	6.69
301.029	7.69
301.162	-9.31
301.296	-7.31
301.429	12.69
301.562	-17.31
301.695	26.69
301.829	-9.31
301.962	5.69
302.095	1.69
302.228	-14.31
302.362	-3.31
302.495	2.69
302.628	2.69
302.761	1.69
302.894	8.69
303.027	31.69
303.161	12.69
303.294	-9.31
303.427	-3.31
303.56	6.69
303.693	18.69
303.826	4.69
303.959	7.69
304.092	-0.31
304.225	-17.31
304.359	0.69
304.492	-12.31
304.625	-14.31
304.758	-7.31
304.891	-19.31
305.024	-5.31
305.157	-27.31
305.29	-14.31
305.423	-13.31
305.556	6.69
305.689	22.69
305.822	-4.31
305.955	-2.31
306.088	-3.31
306.221	0.69
306.354	-6.31
306.487	-4.31
306.62	5.69
306.752	-2.31
306.885	-2.31
307.018	0.69
307.151	-6.31
307.284	9.69
307.417	-5.31
307.55	-0.31
307.683	-11.31
307.816	14.69
307.948	-2.31
308.081	18.69
308.214	13.69
308.347	3.69
308.48	-8.31
308.613	-9.31
308.745	7.69
308.878	1.69
309.011	-2.31
309.144	15.69
309.277	16.69
309.409	12.69
309.542	-7.31
309.675	10.69
309.808	-5.31
309.94	26.69
310.073	-19.31
310.206	-7.31
310.339	24.69
310.471	-6.31
310.604	12.69
310.737	-0.31
310.869	-9.31
311.002	3.69
311.135	-18.31
311.267	-3.31
311.4	3.69
311.533	9.69
311.665	-17.31
311.798	-3.31
311.93	27.69
312.063	33.69
312.196	39.69
312.328	80.69
312.461	57.69
312.593	35.69
312.726	70.69
312.859	95.69
312.991	177.69
313.124	51.69
313.256	-8.31
313.389	1.69
313.521	17.69
313.654	-2.31
313.786	-6.31
313.919	5.69
314.051	17.69
314.184	20.69
314.316	6.69
314.449	-13.31
314.581	-9.31
314.714	9.69
314.846	0.69
314.978	-15.31
315.111	-6.31
315.243	11.69
315.376	11.69
315.508	19.69
315.641	-0.31
315.773	13.69
315.905	15.69
316.038	-6.31
316.17	4.69
316.302	-4.31
316.435	26.69
316.567	2.69
316.699	24.69
316.832	11.69
316.964	2.69
317.096	-4.31
317.229	-7.31
317.361	-25.31
317.493	-1.31
317.625	-9.31
317.758	20.69
317.89	10.69
318.022	11.69
318.155	-7.31
318.287	23.69
318.419	14.69
318.551	20.69
318.683	17.69
318.816	0.69
318.948	-6.31
319.08	5.69
319.212	-2.31
319.344	4.69
319.477	-5.31
319.609	12.69
319.741	27.69
319.873	3.69
320.005	21.69
320.137	-1.31
320.269	20.69
320.401	4.69
320.534	-1.31
320.666	-7.31
320.798	-18.31
320.93	24.69
321.062	-4.31
321.194	1.69
321.326	-2.31
321.458	-0.31
321.59	5.69
321.722	-5.31
321.854	-3.31
321.986	-0.31
322.118	13.69
322.25	-9.31
322.382	11.69
322.514	2.69
322.646	-4.31
322.778	9.69
322.91	-8.31
323.042	-3.31
323.174	8.69
323.306	-14.31
323.438	-13.31
323.57	1.69
323.702	2.69
323.834	-9.31
323.966	-3.31
324.097	14.69
324.229	19.69
324.361	21.69
324.493	5.69
324.625	-7.31
324.757	9.69
324.889	18.69
325.021	5.69
325.152	15.69
325.284	28.69
325.416	-7.31
325.548	16.69
325.68	-5.31
325.811	21.69
325.943	6.69
326.075	-9.31
326.207	17.69
326.339	23.69
326.47	-1.31
326.602	-1.31
326.734	3.69
326.866	8.69
326.997	-13.31
327.129	19.69
327.261	-5.31
327.392	4.69
327.524	6.69
327.656	11.69
327.787	12.69
327.919	19.69
328.051	15.69
328.182	39.69
328.314	26.69
328.446	-3.31
328.577	18.69
328.709	20.69
328.841	-5.31
328.972	-6.31
329.104	-10.31
329.235	2.69
329.367	-8.31
329.499	-9.31
329.63	12.69
329.762	-2.31
329.893	14.69
330.025	5.69
330.156	-7.31
330.288	2.69
330.419	13.69
330.551	7.69
330.683	4.69
330.814	-5.31
330.946	14.69
331.077	-15.31
331.208	-2.31
331.34	26.69
331.471	14.69
331.603	-9.31
331.734	0.69
331.866	23.69
331.997	9.69
332.129	-10.31
332.26	-3.31
332.392	13.69
332.523	7.69
332.654	4.69
332.786	-7.31
332.917	2.69
333.048	25.69
333.18	24.69
333.311	-7.31
333.443	6.69
333.574	12.69
333.705	38.69
333.837	34.69
333.968	110.69
334.099	225.69
334.231	209.69
334.362	69.69
334.493	29.69
334.624	17.69
334.756	21.69
334.887	12.69
335.018	5.69
335.15	20.69
335.281	9.69
335.412	28.69
335.543	-8.31
335.675	14.69
335.806	9.69
335.937	-4.31
336.068	19.69
336.199	19.69
336.331	-17.31
336.462	31.69
336.593	18.69
336.724	-8.31
336.855	6.69
336.986	25.69
337.118	11.69
337.249	23.69
337.38	22.69
337.511	23.69
337.642	23.69
337.773	15.69
337.904	17.69
338.035	20.69
338.166	8.69
338.298	29.69
338.429	16.69
338.56	19.69
338.691	38.69
338.822	17.69
338.953	14.69
339.084	32.69
339.215	21.69
339.346	13.69
339.477	1.69
339.608	12.69
339.739	27.69
339.87	12.69
340.001	10.69
340.132	12.69
340.263	16.69
340.394	11.69
340.525	27.69
340.656	-6.31
340.787	-4.31
340.918	42.69
341.049	10.69
341.179	8.69
341.31	11.69
341.441	41.69
341.572	10.69
341.703	16.69
341.834	-6.31
341.965	-0.31
342.096	5.69
342.227	6.69
342.357	12.69
342.488	16.69
342.619	28.69
342.75	24.69
342.881	3.69
343.012	45.69
343.142	31.69
343.273	5.69
343.404	21.69
343.535	52.69
343.666	36.69
343.796	30.69
343.927	43.69
344.058	35.69
344.189	34.69
344.319	26.69
344.45	25.69
344.581	24.69
344.712	2.69
344.842	17.69
344.973	16.69
345.104	33.69
345.234	23.69
345.365	10.69
345.496	31.69
345.626	44.69
345.757	25.69
345.888	11.69
346.018	33.69
346.149	21.69
346.28	38.69
346.41	11.69
346.541	23.69
346.672	19.69
346.802	43.69
346.933	21.69
347.063	24.69
347.194	25.69
347.325	24.69
347.455	44.69
347.586	46.69
347.716	28.69
347.847	37.69
347.977	49.69
348.108	49.69
348.238	37.69
348.369	25.69
348.499	45.69
348.63	29.69
348.76	49.69
348.891	43.69
349.021	61.69
349.152	44.69
349.282	52.69
349.413	44.69
349.543	41.69
349.674	44.69
349.804	38.69
349.935	18.69
350.065	37.69
350.196	37.69
350.326	32.69
350.456	28.69
350.587	51.69
350.717	34.69
350.848	23.69
350.978	39.69
351.108	12.69
351.239	47.69
351.369	12.69
351.499	14.69
351.63	33.69
351.76	10.69
351.89	15.69
352.021	18.69
352.151	27.69
352.281	18.69
352.412	39.69
352.542	20.69
352.672	29.69
352.803	27.69
352.933	32.69
353.063	24.69
353.193	31.69
353.324	15.69
353.454	34.69
353.584	48.69
353.714	17.69
353.845	40.69
353.975	22.69
354.105	19.69
354.235	13.69
354.365	23.69
354.496	21.69
354.626	30.69
354.756	29.69
354.886	-2.31
355.016	24.69
355.146	12.69
355.277	25.69
355.407	28.69
355.537	37.69
355.667	24.69
355.797	22.69
355.927	17.69
356.057	17.69
356.187	14.69
356.318	26.69
356.448	21.69
356.578	38.69
356.708	52.69
356.838	42.69
356.968	26.69
357.098	47.69
357.228	37.69
357.358	23.69
357.488	30.69
357.618	36.69
357.748	27.69
357.878	12.69
358.008	29.69
358.138	19.69
358.268	21.69
358.398	42.69
358.528	20.69
358.658	31.69
358.788	33.69
358.918	33.69
359.048	29.69
359.178	30.69
359.308	29.69
359.438	40.69
359.568	44.69
359.698	31.69
359.827	21.69
359.957	33.69
360.087	28.69
360.217	20.69
360.347	35.69
360.477	31.69
360.607	17.69
360.737	36.69
360.866	33.69
360.996	26.69
361.126	18.69
361.256	41.69
361.386	55.69
361.516	31.69
361.645	34.69
361.775	39.69
361.905	12.69
362.035	44.69
362.165	43.69
362.294	32.69
362.424	49.69
362.554	58.69
362.684	36.69
362.813	42.69
362.943	70.69
363.073	40.69
363.203	55.69
363.332	70.69
363.462	53.69
363.592	95.69
363.721	115.69
363.851	153.69
363.981	228.69
364.111	236.69
364.24	327.69
364.37	491.69
364.5	858.69
364.629	1794.69
364.759	3789.69
364.888	6166.69
365.018	9254.69
365.148	14754.69
365.277	12790.69
365.407	4688.69
365.537	3071.69
365.666	4026.69
365.796	1828.69
365.925	773.69
366.055	764.69
366.184	1022.69
366.314	1352.69
366.444	2433.69
366.573	2132.69
366.703	662.69
366.832	212.69
366.962	114.69
367.091	92.69
367.221	66.69
367.35	49.69
367.48	85.69
367.609	65.69
367.739	45.69
367.868	33.69
367.998	50.69
368.127	65.69
368.257	49.69
368.386	59.69
368.516	34.69
368.645	23.69
368.775	39.69
368.904	30.69
369.033	23.69
369.163	35.69
369.292	33.69
369.422	39.69
369.551	41.69
369.68	35.69
369.81	36.69
369.939	35.69
370.069	42.69
370.198	53.69
370.327	40.69
370.457	33.69
370.586	31.69
370.715	42.69
370.845	17.69
370.974	47.69
371.103	61.69
371.233	49.69
371.362	40.69
371.491	25.69
371.621	49.69
371.75	33.69
371.879	43.69
372.008	45.69
372.138	42.69
372.267	67.69
372.396	39.69
372.525	29.69
372.655	22.69
372.784	26.69
372.913	27.69
373.042	20.69
373.172	44.69
373.301	1.69
373.43	-7.31
373.559	12.69
373.688	14.69
373.818	26.69
373.947	24.69
374.076	21.69
374.205	16.69
374.334	3.69
374.463	8.69
374.593	7.69
374.722	30.69
374.851	26.69
374.98	30.69
375.109	-1.31
375.238	21.69
375.367	49.69
375.496	12.69
375.625	13.69
375.755	25.69
375.884	34.69
376.013	16.69
376.142	-3.31
376.271	14.69
376.4	23.69
376.529	2.69
376.658	21.69
376.787	9.69
376.916	14.69
377.045	24.69
377.174	22.69
377.303	14.69
377.432	40.69
377.561	43.69
377.69	33.69
377.819	33.69
377.948	20.69
378.077	14.69
378.206	17.69
378.335	18.69
378.464	4.69
378.593	38.69
378.722	17.69
378.851	14.69
378.98	36.69
379.108	-8.31
379.237	8.69
379.366	28.69
379.495	27.69
379.624	19.69
379.753	11.69
379.882	9.69
380.011	15.69
380.14	-0.31
380.268	26.69
380.397	7.69
380.526	43.69
380.655	18.69
380.784	-14.31
380.913	6.69
381.041	17.69
381.17	10.69
381.299	13.69
381.428	30.69
381.557	22.69
381.685	18.69
381.814	24.69
381.943	10.69
382.072	6.69
382.2	23.69
382.329	21.69
382.458	22.69
382.587	21.69
382.715	20.69
382.844	22.69
382.973	25.69
383.102	17.69
383.23	12.69
383.359	3.69
383.488	43.69
383.616	13.69
383.745	8.69
383.874	16.69
384.003	17.69
384.131	21.69
384.26	16.69
384.389	24.69
384.517	10.69
384.646	22.69
384.774	18.69
384.903	28.69
385.032	23.69
385.16	22.69
385.289	7.69
385.418	10.69
385.546	17.69
385.675	33.69
385.803	27.69
385.932	-0.31
386.06	14.69
386.189	5.69
386.318	30.69
386.446	34.69
386.575	8.69
386.703	29.69
386.832	29.69
386.96	9.69
387.089	40.69
387.217	22.69
387.346	18.69
387.474	19.69
387.603	31.69
387.731	21.69
387.86	29.69
387.988	32.69
388.117	34.69
388.245	26.69
388.374	13.69
388.502	32.69
388.631	19.69
388.759	23.69
388.888	28.69
389.016	18.69
389.144	26.69
389.273	25.69
389.401	8.69
389.53	7.69
389.658	10.69
389.786	8.69
389.915	18.69
390.043	12.69
390.172	45.69
390.3	46.69
390.428	41.69
390.557	40.69
390.685	50.69
390.813	38.69
390.942	26.69
391.07	29.69
391.198	33.69
391.327	15.69
391.455	10.69
391.583	51.69
391.712	24.69
391.84	21.69
391.968	20.69
392.096	22.69
392.225	26.69
392.353	33.69
392.481	15.69
392.609	40.69
392.738	27.69
392.866	34.69
392.994	17.69
393.122	40.69
393.251	26.69
393.379	22.69
393.507	-3.31
393.635	26.69
393.764	21.69
393.892	42.69
394.02	19.69
394.148	11.69
394.276	30.69
394.404	52.69
394.533	21.69
394.661	22.69
394.789	36.69
394.917	27.69
395.045	20.69
395.173	28.69
395.302	30.69
395.43	26.69
395.558	40.69
395.686	33.69
395.814	24.69
395.942	36.69
396.07	37.69
396.198	44.69
396.326	41.69
396.454	28.69
396.582	52.69
396.711	42.69
396.839	29.69
396.967	30.69
397.095	3.69
397.223	23.69
397.351	54.69
397.479	50.69
397.607	37.69
397.735	69.69
397.863	45.69
397.991	59.69
398.119	45.69
398.247	53.69
398.375	47.69
398.503	37.69
398.631	61.69
398.759	63.69
398.887	59.69
399.015	31.69
399.143	58.69
399.271	71.69
399.399	65.69
399.526	73.69
399.654	89.69
399.782	79.69
399.91	102.69
400.038	119.69
400.166	93.69
400.294	85.69
400.422	84.69
400.55	105.69
400.678	107.69
400.805	107.69
400.933	117.69
401.061	124.69
401.189	133.69
401.317	135.69
401.445	112.69
401.573	77.69
401.7	60.69
401.828	64.69
401.956	48.69
402.084	48.69
402.212	42.69
402.34	32.69
402.467	27.69
402.595	23.69
402.723	35.69
402.851	75.69
402.978	50.69
403.106	64.69
403.234	85.69
403.362	105.69
403.489	124.69
403.617	158.69
403.745	180.69
403.873	301.69
404	555.69
404.128	1415.69
404.256	3812.69
404.384	4962.69
404.511	5384.69
404.639	7101.69
404.767	11253.69
404.894	14534.69
405.022	4832.69
405.15	1290.69
405.277	422.69
405.405	221.69
405.533	112.69
405.66	98.69
405.788	53.69
405.916	71.69
406.043	51.69
406.171	60.69
406.299	68.69
406.426	62.69
406.554	46.69
406.681	76.69
406.809	48.69
406.937	48.69
407.064	54.69
407.192	141.69
407.319	315.69
407.447	527.69
407.574	512.69
407.702	600.69
407.83	819.69
407.957	1530.69
408.085	927.69
408.212	274.69
408.34	93.69
408.467	56.69
408.595	38.69
408.722	45.69
408.85	41.69
408.977	34.69
409.105	35.69
409.232	43.69
409.36	39.69
409.487	32.69
409.615	30.69
409.742	42.69
409.87	46.69
409.997	44.69
410.125	27.69
410.252	43.69
410.379	32.69
410.507	49.69
410.634	30.69
410.762	23.69
410.889	33.69
411.017	35.69
411.144	25.69
411.271	26.69
411.399	23.69
411.526	30.69
411.653	34.69
411.781	43.69
411.908	37.69
412.036	17.69
412.163	41.69
412.29	49.69
412.418	52.69
412.545	46.69
412.672	13.69
412.8	54.69
412.927	41.69
413.054	53.69
413.182	45.69
413.309	17.69
413.436	32.69
413.564	34.69
413.691	38.69
413.818	45.69
413.945	25.69
414.073	27.69
414.2	17.69
414.327	36.69
414.454	32.69
414.582	27.69
414.709	-1.31
414.836	5.69
414.963	29.69
415.091	32.69
415.218	34.69
415.345	28.69
415.472	33.69
415.6	24.69
415.727	14.69
415.854	16.69
415.981	24.69
416.108	17.69
416.236	15.69
416.363	15.69
416.49	9.69
416.617	23.69
416.744	28.69
416.871	38.69
416.998	24.69
417.126	44.69
417.253	20.69
417.38	25.69
417.507	30.69
417.634	18.69
417.761	38.69
417.888	29.69
418.015	46.69
418.143	32.69
418.27	53.69
418.397	27.69
418.524	27.69
418.651	26.69
418.778	40.69
418.905	57.69
