Data from LowRes_mercury_15_20_11_07_2024_HR4C61881__58__15-23-38-071.txt Node

Date: Thu Nov 07 15:23:38 EST 2024
User: crc00042
Spectrometer: HR4C6188
Trigger mode: 4
Integration Time (sec): 1.000000E-1
Scans to average: 1
Electric dark correction enabled: true
Nonlinearity correction enabled: false
Boxcar width: 0
XAxis mode: Wavelengths
Number of Pixels in Spectrum: 3648
>>>>>Begin Spectral Data<<<<<
245.66	-71.23
245.797	-71.23
245.934	-71.23
246.071	-81.23
246.208	6.77
246.344	22.77
246.481	-13.23
246.618	-29.23
246.755	-0.23
246.892	-14.23
247.029	-21.23
247.165	-13.23
247.302	24.77
247.439	15.77
247.576	13.77
247.713	-7.23
247.849	20.77
247.986	0.77
248.123	7.77
248.26	-7.23
248.396	9.77
248.533	-6.23
248.67	-12.23
248.806	-2.23
248.943	-21.23
249.08	-9.23
249.216	5.77
249.353	-7.23
249.49	-7.23
249.626	-5.23
249.763	3.77
249.9	-16.23
250.036	-4.23
250.173	3.77
250.309	0.77
250.446	1.77
250.582	-5.23
250.719	-8.23
250.856	3.77
250.992	-16.23
251.129	-6.23
251.265	-9.23
251.402	-5.23
251.538	-2.23
251.675	-5.23
251.811	9.77
251.948	6.77
252.084	5.77
252.221	-13.23
252.357	-6.23
252.493	-2.23
252.63	-1.23
252.766	8.77
252.903	-9.23
253.039	7.77
253.175	-5.23
253.312	9.77
253.448	-13.23
253.585	-22.23
253.721	15.77
253.857	-22.23
253.994	3.77
254.13	2.77
254.266	-0.23
254.403	-3.23
254.539	-12.23
254.675	8.77
254.811	-1.23
254.948	-1.23
255.084	-4.23
255.22	-13.23
255.356	-11.23
255.493	5.77
255.629	13.77
255.765	4.77
255.901	8.77
256.037	-13.23
256.174	-3.23
256.31	-20.23
256.446	-7.23
256.582	-12.23
256.718	-0.23
256.854	27.77
256.991	4.77
257.127	-4.23
257.263	0.77
257.399	-0.23
257.535	-14.23
257.671	1.77
257.807	-20.23
257.943	-15.23
258.079	-21.23
258.215	6.77
258.351	15.77
258.487	8.77
258.623	23.77
258.759	5.77
258.895	3.77
259.031	-3.23
259.167	-13.23
259.303	8.77
259.439	-8.23
259.575	4.77
259.711	19.77
259.847	-7.23
259.983	-5.23
260.119	-15.23
260.255	-1.23
260.391	-8.23
260.527	-6.23
260.663	3.77
260.799	9.77
260.934	1.77
261.07	-14.23
261.206	-4.23
261.342	1.77
261.478	12.77
261.614	11.77
261.749	12.77
261.885	-6.23
262.021	15.77
262.157	10.77
262.293	-2.23
262.428	-7.23
262.564	-2.23
262.7	3.77
262.836	10.77
262.971	8.77
263.107	-6.23
263.243	5.77
263.378	-1.23
263.514	-16.23
263.65	-2.23
263.785	-1.23
263.921	1.77
264.057	-2.23
264.192	3.77
264.328	4.77
264.464	0.77
264.599	-4.23
264.735	15.77
264.871	-3.23
265.006	-9.23
265.142	1.77
265.277	11.77
265.413	14.77
265.548	4.77
265.684	8.77
265.819	-13.23
265.955	-15.23
266.091	-3.23
266.226	-18.23
266.362	8.77
266.497	11.77
266.633	3.77
266.768	-11.23
266.903	20.77
267.039	19.77
267.174	17.77
267.31	-7.23
267.445	-1.23
267.581	2.77
267.716	5.77
267.851	-9.23
267.987	15.77
268.122	29.77
268.258	-12.23
268.393	-3.23
268.528	11.77
268.664	-3.23
268.799	-30.23
268.934	-0.23
269.07	-6.23
269.205	7.77
269.34	14.77
269.476	3.77
269.611	-20.23
269.746	14.77
269.881	-3.23
270.017	12.77
270.152	2.77
270.287	4.77
270.422	5.77
270.558	-5.23
270.693	7.77
270.828	3.77
270.963	5.77
271.098	5.77
271.234	-18.23
271.369	14.77
271.504	5.77
271.639	-17.23
271.774	6.77
271.909	-2.23
272.045	-21.23
272.18	3.77
272.315	-6.23
272.45	-4.23
272.585	-13.23
272.72	15.77
272.855	3.77
272.99	7.77
273.125	1.77
273.26	-7.23
273.395	-10.23
273.53	1.77
273.665	2.77
273.8	12.77
273.935	9.77
274.07	5.77
274.205	1.77
274.34	-16.23
274.475	-22.23
274.61	1.77
274.745	1.77
274.88	17.77
275.015	-26.23
275.15	-11.23
275.285	19.77
275.42	13.77
275.555	42.77
275.69	19.77
275.825	-23.23
275.959	-11.23
276.094	-17.23
276.229	-5.23
276.364	-13.23
276.499	7.77
276.634	-8.23
276.768	11.77
276.903	9.77
277.038	1.77
277.173	-3.23
277.308	1.77
277.442	-11.23
277.577	-21.23
277.712	-8.23
277.847	-12.23
277.981	-7.23
278.116	-6.23
278.251	25.77
278.386	-5.23
278.52	11.77
278.655	-12.23
278.79	-0.23
278.924	0.77
279.059	-6.23
279.194	-10.23
279.328	22.77
279.463	3.77
279.598	16.77
279.732	2.77
279.867	14.77
280.001	23.77
280.136	-2.23
280.271	-6.23
280.405	-5.23
280.54	-9.23
280.674	3.77
280.809	27.77
280.943	10.77
281.078	3.77
281.213	15.77
281.347	1.77
281.482	6.77
281.616	-8.23
281.751	-7.23
281.885	-22.23
282.02	3.77
282.154	3.77
282.288	-12.23
282.423	-28.23
282.557	-1.23
282.692	-4.23
282.826	-6.23
282.961	-1.23
283.095	-20.23
283.229	-22.23
283.364	-24.23
283.498	-9.23
283.633	-5.23
283.767	0.77
283.901	5.77
284.036	2.77
284.17	-14.23
284.304	-11.23
284.439	-2.23
284.573	-6.23
284.707	15.77
284.842	-5.23
284.976	1.77
285.11	-18.23
285.244	8.77
285.379	29.77
285.513	-2.23
285.647	12.77
285.781	3.77
285.916	19.77
286.05	5.77
286.184	13.77
286.318	6.77
286.453	0.77
286.587	-16.23
286.721	-12.23
286.855	8.77
286.989	4.77
287.123	-15.23
287.258	-2.23
287.392	-3.23
287.526	11.77
287.66	-4.23
287.794	6.77
287.928	-5.23
288.062	11.77
288.196	-5.23
288.33	-9.23
288.464	26.77
288.598	4.77
288.733	3.77
288.867	15.77
289.001	7.77
289.135	7.77
289.269	-19.23
289.403	1.77
289.537	0.77
289.671	9.77
289.805	-11.23
289.939	-4.23
290.073	18.77
290.207	10.77
290.34	-8.23
290.474	29.77
290.608	18.77
290.742	2.77
290.876	-18.23
291.01	-24.23
291.144	16.77
291.278	7.77
291.412	-11.23
291.546	-5.23
291.679	-8.23
291.813	-12.23
291.947	-2.23
292.081	-10.23
292.215	-4.23
292.349	8.77
292.482	16.77
292.616	-9.23
292.75	0.77
292.884	-0.23
293.018	-3.23
293.151	-27.23
293.285	12.77
293.419	3.77
293.553	-19.23
293.686	2.77
293.82	-11.23
293.954	16.77
294.088	19.77
294.221	15.77
294.355	-8.23
294.489	-0.23
294.622	-21.23
294.756	3.77
294.89	4.77
295.023	10.77
295.157	5.77
295.291	-6.23
295.424	11.77
295.558	7.77
295.691	3.77
295.825	-14.23
295.959	-1.23
296.092	-4.23
296.226	-10.23
296.359	-17.23
296.493	2.77
296.627	9.77
296.76	4.77
296.894	-13.23
297.027	-9.23
297.161	-5.23
297.294	-4.23
297.428	9.77
297.561	29.77
297.695	-14.23
297.828	-5.23
297.962	-12.23
298.095	-15.23
298.229	-0.23
298.362	0.77
298.495	-18.23
298.629	-4.23
298.762	-1.23
298.896	4.77
299.029	-25.23
299.162	5.77
299.296	13.77
299.429	-8.23
299.563	-0.23
299.696	12.77
299.829	16.77
299.963	6.77
300.096	10.77
300.229	9.77
300.363	16.77
300.496	9.77
300.629	-6.23
300.763	-3.23
300.896	-12.23
301.029	10.77
301.162	4.77
301.296	-10.23
301.429	0.77
301.562	-12.23
301.695	15.77
301.829	-0.23
301.962	21.77
302.095	-3.23
302.228	-14.23
302.362	0.77
302.495	-3.23
302.628	6.77
302.761	-19.23
302.894	-3.23
303.027	30.77
303.161	3.77
303.294	-17.23
303.427	8.77
303.56	3.77
303.693	-6.23
303.826	2.77
303.959	4.77
304.092	-3.23
304.225	7.77
304.359	3.77
304.492	-6.23
304.625	-14.23
304.758	-23.23
304.891	-22.23
305.024	6.77
305.157	-7.23
305.29	-9.23
305.423	-3.23
305.556	13.77
305.689	13.77
305.822	-19.23
305.955	-8.23
306.088	0.77
306.221	-7.23
306.354	-2.23
306.487	-8.23
306.62	-7.23
306.752	-3.23
306.885	1.77
307.018	3.77
307.151	4.77
307.284	14.77
307.417	-9.23
307.55	4.77
307.683	1.77
307.816	16.77
307.948	1.77
308.081	-4.23
308.214	11.77
308.347	18.77
308.48	-7.23
308.613	-23.23
308.745	8.77
308.878	-14.23
309.011	-2.23
309.144	2.77
309.277	-7.23
309.409	12.77
309.542	-3.23
309.675	2.77
309.808	1.77
309.94	4.77
310.073	-17.23
310.206	-18.23
310.339	-7.23
310.471	-15.23
310.604	7.77
310.737	-13.23
310.869	-6.23
311.002	11.77
311.135	-11.23
311.267	-2.23
311.4	8.77
311.533	11.77
311.665	-14.23
311.798	-3.23
311.93	16.77
312.063	22.77
312.196	56.77
312.328	70.77
312.461	47.77
312.593	29.77
312.726	44.77
312.859	87.77
312.991	159.77
313.124	47.77
313.256	35.77
313.389	-8.23
313.521	-13.23
313.654	7.77
313.786	1.77
313.919	-12.23
314.051	5.77
314.184	17.77
314.316	-13.23
314.449	-44.23
314.581	8.77
314.714	-4.23
314.846	-1.23
314.978	-7.23
315.111	-3.23
315.243	6.77
315.376	1.77
315.508	-0.23
315.641	-12.23
315.773	16.77
315.905	-11.23
316.038	-12.23
316.17	-0.23
316.302	-5.23
316.435	-11.23
316.567	-17.23
316.699	11.77
316.832	-8.23
316.964	-3.23
317.096	-11.23
317.229	-25.23
317.361	-24.23
317.493	-23.23
317.625	-16.23
317.758	1.77
317.89	20.77
318.022	-10.23
318.155	0.77
318.287	20.77
318.419	-11.23
318.551	1.77
318.683	-0.23
318.816	-2.23
318.948	3.77
319.08	-21.23
319.212	15.77
319.344	-7.23
319.477	-10.23
319.609	-2.23
319.741	15.77
319.873	-3.23
320.005	-9.23
320.137	6.77
320.269	3.77
320.401	-4.23
320.534	14.77
320.666	-14.23
320.798	-13.23
320.93	-30.23
321.062	-2.23
321.194	-11.23
321.326	-9.23
321.458	0.77
321.59	-3.23
321.722	-19.23
321.854	-24.23
321.986	-9.23
322.118	17.77
322.25	3.77
322.382	-5.23
322.514	-14.23
322.646	-18.23
322.778	2.77
322.91	-0.23
323.042	1.77
323.174	-2.23
323.306	-12.23
323.438	-19.23
323.57	1.77
323.702	-7.23
323.834	-16.23
323.966	-17.23
324.097	2.77
324.229	-3.23
324.361	0.77
324.493	-6.23
324.625	-13.23
324.757	16.77
324.889	-7.23
325.021	6.77
325.152	16.77
325.284	19.77
325.416	-6.23
325.548	-4.23
325.68	-4.23
325.811	10.77
325.943	7.77
326.075	-11.23
326.207	6.77
326.339	8.77
326.47	-4.23
326.602	8.77
326.734	2.77
326.866	13.77
326.997	-11.23
327.129	-10.23
327.261	-18.23
327.392	-10.23
327.524	4.77
327.656	-16.23
327.787	-3.23
327.919	13.77
328.051	-2.23
328.182	4.77
328.314	20.77
328.446	3.77
328.577	27.77
328.709	10.77
328.841	-24.23
328.972	-9.23
329.104	4.77
329.235	0.77
329.367	-7.23
329.499	-3.23
329.63	-6.23
329.762	-1.23
329.893	-9.23
330.025	0.77
330.156	-24.23
330.288	-9.23
330.419	1.77
330.551	11.77
330.683	9.77
330.814	-21.23
330.946	12.77
331.077	-15.23
331.208	-8.23
331.34	-3.23
331.471	-9.23
331.603	2.77
331.734	-18.23
331.866	1.77
331.997	-6.23
332.129	-13.23
332.26	-2.23
332.392	11.77
332.523	0.77
332.654	-16.23
332.786	-25.23
332.917	-23.23
333.048	3.77
333.18	31.77
333.311	3.77
333.443	11.77
333.574	24.77
333.705	39.77
333.837	33.77
333.968	100.77
334.099	223.77
334.231	211.77
334.362	36.77
334.493	20.77
334.624	23.77
334.756	8.77
334.887	5.77
335.018	14.77
335.15	16.77
335.281	4.77
335.412	25.77
335.543	13.77
335.675	8.77
335.806	9.77
335.937	0.77
336.068	22.77
336.199	23.77
336.331	3.77
336.462	-5.23
336.593	-1.23
336.724	-8.23
336.855	19.77
336.986	2.77
337.118	15.77
337.249	1.77
337.38	5.77
337.511	14.77
337.642	21.77
337.773	13.77
337.904	17.77
338.035	1.77
338.166	-2.23
338.298	17.77
338.429	11.77
338.56	7.77
338.691	17.77
338.822	-15.23
338.953	-0.23
339.084	8.77
339.215	17.77
339.346	10.77
339.477	-12.23
339.608	0.77
339.739	7.77
339.87	0.77
340.001	-0.23
340.132	3.77
340.263	11.77
340.394	2.77
340.525	16.77
340.656	-3.23
340.787	-5.23
340.918	32.77
341.049	9.77
341.179	8.77
341.31	19.77
341.441	19.77
341.572	10.77
341.703	8.77
341.834	-17.23
341.965	16.77
342.096	11.77
342.227	10.77
342.357	17.77
342.488	23.77
342.619	5.77
342.75	14.77
342.881	18.77
343.012	22.77
343.142	31.77
343.273	5.77
343.404	21.77
343.535	18.77
343.666	25.77
343.796	32.77
343.927	21.77
344.058	37.77
344.189	3.77
344.319	29.77
344.45	27.77
344.581	9.77
344.712	8.77
344.842	19.77
344.973	11.77
345.104	32.77
345.234	24.77
345.365	18.77
345.496	24.77
345.626	16.77
345.757	24.77
345.888	23.77
346.018	17.77
346.149	3.77
346.28	24.77
346.41	5.77
346.541	32.77
346.672	9.77
346.802	27.77
346.933	22.77
347.063	26.77
347.194	-1.23
347.325	19.77
347.455	30.77
347.586	13.77
347.716	6.77
347.847	25.77
347.977	45.77
348.108	39.77
348.238	37.77
348.369	23.77
348.499	32.77
348.63	41.77
348.76	44.77
348.891	42.77
349.021	48.77
349.152	46.77
349.282	41.77
349.413	39.77
349.543	40.77
349.674	12.77
349.804	36.77
349.935	25.77
350.065	26.77
350.196	20.77
350.326	11.77
350.456	25.77
350.587	39.77
350.717	9.77
350.848	23.77
350.978	23.77
351.108	6.77
351.239	27.77
351.369	1.77
351.499	23.77
351.63	20.77
351.76	24.77
351.89	15.77
352.021	20.77
352.151	21.77
352.281	27.77
352.412	30.77
352.542	17.77
352.672	14.77
352.803	7.77
352.933	22.77
353.063	22.77
353.193	21.77
353.324	23.77
353.454	22.77
353.584	20.77
353.714	5.77
353.845	5.77
353.975	29.77
354.105	19.77
354.235	19.77
354.365	10.77
354.496	33.77
354.626	16.77
354.756	23.77
354.886	15.77
355.016	22.77
355.146	12.77
355.277	26.77
355.407	19.77
355.537	20.77
355.667	23.77
355.797	25.77
355.927	12.77
356.057	35.77
356.187	13.77
356.318	19.77
356.448	26.77
356.578	24.77
356.708	23.77
356.838	28.77
356.968	17.77
357.098	21.77
357.228	31.77
357.358	14.77
357.488	29.77
357.618	48.77
357.748	34.77
357.878	21.77
358.008	13.77
358.138	30.77
358.268	11.77
358.398	18.77
358.528	25.77
358.658	31.77
358.788	19.77
358.918	34.77
359.048	20.77
359.178	37.77
359.308	37.77
359.438	52.77
359.568	44.77
359.698	38.77
359.827	26.77
359.957	23.77
360.087	30.77
360.217	28.77
360.347	18.77
360.477	25.77
360.607	-0.23
360.737	18.77
360.866	-9.23
360.996	-7.23
361.126	22.77
361.256	37.77
361.386	37.77
361.516	52.77
361.645	17.77
361.775	25.77
361.905	15.77
362.035	36.77
362.165	17.77
362.294	10.77
362.424	37.77
362.554	47.77
362.684	25.77
362.813	52.77
362.943	62.77
363.073	39.77
363.203	43.77
363.332	59.77
363.462	65.77
363.592	95.77
363.721	109.77
363.851	152.77
363.981	200.77
364.111	239.77
364.24	303.77
364.37	461.77
364.5	837.77
364.629	1796.77
364.759	3895.77
364.888	6276.77
365.018	9378.77
365.148	14814.77
365.277	13022.77
365.407	4792.77
365.537	3115.77
365.666	4058.77
365.796	1819.77
365.925	811.77
366.055	755.77
366.184	1027.77
366.314	1393.77
366.444	2475.77
366.573	2088.77
366.703	648.77
366.832	203.77
366.962	98.77
367.091	87.77
367.221	75.77
367.35	56.77
367.48	67.77
367.609	41.77
367.739	56.77
367.868	14.77
367.998	44.77
368.127	52.77
368.257	75.77
368.386	69.77
368.516	40.77
368.645	23.77
368.775	31.77
368.904	32.77
369.033	13.77
369.163	29.77
369.292	33.77
369.422	21.77
369.551	37.77
369.68	32.77
369.81	37.77
369.939	19.77
370.069	44.77
370.198	35.77
370.327	29.77
370.457	28.77
370.586	35.77
370.715	23.77
370.845	16.77
370.974	34.77
371.103	52.77
371.233	29.77
371.362	50.77
371.491	25.77
371.621	45.77
371.75	32.77
371.879	32.77
372.008	27.77
372.138	41.77
372.267	52.77
372.396	51.77
372.525	30.77
372.655	42.77
372.784	34.77
372.913	35.77
373.042	16.77
373.172	21.77
373.301	-0.23
373.43	3.77
373.559	14.77
373.688	34.77
373.818	32.77
373.947	28.77
374.076	3.77
374.205	20.77
374.334	9.77
374.463	9.77
374.593	28.77
374.722	24.77
374.851	28.77
374.98	-2.23
375.109	-0.23
375.238	26.77
375.367	46.77
375.496	1.77
375.625	4.77
375.755	7.77
375.884	44.77
376.013	26.77
376.142	-13.23
376.271	14.77
376.4	10.77
376.529	17.77
376.658	37.77
376.787	21.77
376.916	9.77
377.045	13.77
377.174	16.77
377.303	16.77
377.432	46.77
377.561	32.77
377.69	8.77
377.819	36.77
377.948	15.77
378.077	-7.23
378.206	0.77
378.335	6.77
378.464	11.77
378.593	47.77
378.722	4.77
378.851	11.77
378.98	22.77
379.108	-11.23
379.237	8.77
379.366	19.77
379.495	15.77
379.624	36.77
379.753	22.77
379.882	17.77
380.011	7.77
380.14	-5.23
380.268	14.77
380.397	8.77
380.526	48.77
380.655	12.77
380.784	4.77
380.913	3.77
381.041	11.77
381.17	-10.23
381.299	22.77
381.428	1.77
381.557	13.77
381.685	23.77
381.814	25.77
381.943	13.77
382.072	0.77
382.2	1.77
382.329	8.77
382.458	7.77
382.587	21.77
382.715	16.77
382.844	34.77
382.973	16.77
383.102	10.77
383.23	14.77
383.359	-9.23
383.488	13.77
383.616	9.77
383.745	11.77
383.874	21.77
384.003	7.77
384.131	4.77
384.26	14.77
384.389	13.77
384.517	3.77
384.646	12.77
384.774	1.77
384.903	18.77
385.032	31.77
385.16	16.77
385.289	2.77
385.418	-3.23
385.546	10.77
385.675	37.77
385.803	13.77
385.932	25.77
386.06	-6.23
386.189	13.77
386.318	10.77
386.446	-7.23
386.575	8.77
386.703	22.77
386.832	5.77
386.96	8.77
387.089	20.77
387.217	18.77
387.346	3.77
387.474	15.77
387.603	25.77
387.731	15.77
387.86	37.77
387.988	1.77
388.117	11.77
388.245	11.77
388.374	3.77
388.502	22.77
388.631	3.77
388.759	11.77
388.888	4.77
389.016	4.77
389.144	-3.23
389.273	-6.23
389.401	13.77
389.53	16.77
389.658	50.77
389.786	5.77
389.915	2.77
390.043	16.77
390.172	29.77
390.3	50.77
390.428	33.77
390.557	35.77
390.685	27.77
390.813	36.77
390.942	45.77
391.07	14.77
391.198	-4.23
391.327	-3.23
391.455	-7.23
391.583	28.77
391.712	10.77
391.84	16.77
391.968	13.77
392.096	13.77
392.225	-2.23
392.353	21.77
392.481	27.77
392.609	37.77
392.738	11.77
392.866	18.77
392.994	4.77
393.122	31.77
393.251	17.77
393.379	10.77
393.507	11.77
393.635	14.77
393.764	12.77
393.892	33.77
394.02	29.77
394.148	9.77
394.276	12.77
394.404	42.77
394.533	32.77
394.661	30.77
394.789	34.77
394.917	36.77
395.045	-5.23
395.173	13.77
395.302	19.77
395.43	19.77
395.558	26.77
395.686	26.77
395.814	24.77
395.942	33.77
396.07	24.77
396.198	30.77
396.326	20.77
396.454	46.77
396.582	29.77
396.711	36.77
396.839	31.77
396.967	27.77
397.095	37.77
397.223	30.77
397.351	30.77
397.479	24.77
397.607	36.77
397.735	45.77
397.863	45.77
397.991	51.77
398.119	24.77
398.247	33.77
398.375	57.77
398.503	45.77
398.631	56.77
398.759	50.77
398.887	41.77
399.015	50.77
399.143	38.77
399.271	53.77
399.399	55.77
399.526	59.77
399.654	69.77
399.782	64.77
399.91	105.77
400.038	113.77
400.166	74.77
400.294	68.77
400.422	61.77
400.55	99.77
400.678	91.77
400.805	108.77
400.933	104.77
401.061	104.77
401.189	114.77
401.317	134.77
401.445	115.77
401.573	74.77
401.7	43.77
401.828	49.77
401.956	42.77
402.084	40.77
402.212	25.77
402.34	10.77
402.467	18.77
402.595	47.77
402.723	48.77
402.851	67.77
402.978	48.77
403.106	69.77
403.234	82.77
403.362	112.77
403.489	115.77
403.617	135.77
403.745	186.77
403.873	263.77
404	553.77
404.128	1478.77
404.256	3903.77
404.384	5108.77
404.511	5458.77
404.639	7232.77
404.767	11446.77
404.894	14635.77
405.022	4889.77
405.15	1296.77
405.277	409.77
405.405	221.77
405.533	106.77
405.66	122.77
405.788	67.77
405.916	67.77
406.043	56.77
406.171	42.77
406.299	56.77
406.426	56.77
406.554	42.77
406.681	67.77
406.809	42.77
406.937	34.77
407.064	61.77
407.192	127.77
407.319	289.77
407.447	532.77
407.574	548.77
407.702	629.77
407.83	847.77
407.957	1583.77
408.085	940.77
408.212	269.77
408.34	94.77
408.467	51.77
408.595	41.77
408.722	36.77
408.85	50.77
408.977	28.77
409.105	28.77
409.232	31.77
409.36	20.77
409.487	29.77
409.615	21.77
409.742	24.77
409.87	42.77
409.997	31.77
410.125	39.77
410.252	48.77
410.379	31.77
410.507	33.77
410.634	0.77
410.762	27.77
410.889	36.77
411.017	53.77
411.144	27.77
411.271	27.77
411.399	20.77
411.526	21.77
411.653	22.77
411.781	29.77
411.908	7.77
412.036	23.77
412.163	34.77
412.29	34.77
412.418	16.77
412.545	16.77
412.672	16.77
412.8	42.77
412.927	37.77
413.054	43.77
413.182	29.77
413.309	16.77
413.436	10.77
413.564	19.77
413.691	14.77
413.818	50.77
413.945	22.77
414.073	26.77
414.2	31.77
414.327	38.77
414.454	37.77
414.582	26.77
414.709	3.77
414.836	13.77
414.963	3.77
415.091	37.77
415.218	38.77
415.345	33.77
415.472	36.77
415.6	16.77
415.727	7.77
415.854	22.77
415.981	16.77
416.108	11.77
416.236	12.77
416.363	42.77
416.49	31.77
416.617	36.77
416.744	31.77
416.871	44.77
416.998	28.77
417.126	24.77
417.253	17.77
417.38	28.77
417.507	20.77
417.634	40.77
417.761	45.77
417.888	40.77
418.015	33.77
418.143	37.77
418.27	27.77
418.397	29.77
418.524	32.77
418.651	36.77
