Data from LowRes_mercury_15_20_11_07_2024_HR4C61881__74__15-23-39-670.txt Node

Date: Thu Nov 07 15:23:39 EST 2024
User: crc00042
Spectrometer: HR4C6188
Trigger mode: 4
Integration Time (sec): 1.000000E-1
Scans to average: 1
Electric dark correction enabled: true
Nonlinearity correction enabled: false
Boxcar width: 0
XAxis mode: Wavelengths
Number of Pixels in Spectrum: 3648
>>>>>Begin Spectral Data<<<<<
245.66	-66.85
245.797	-66.85
245.934	-66.85
246.071	-70.85
246.208	3.15
246.344	14.15
246.481	-1.85
246.618	-10.85
246.755	3.15
246.892	6.15
247.029	-25.85
247.165	-30.85
247.302	9.15
247.439	-0.85
247.576	23.15
247.713	-17.85
247.849	26.15
247.986	6.15
248.123	5.15
248.26	-15.85
248.396	16.15
248.533	-8.85
248.67	-2.85
248.806	4.15
248.943	-14.85
249.08	0.15
249.216	18.15
249.353	-9.85
249.49	-2.85
249.626	-1.85
249.763	8.15
249.9	-9.85
250.036	-1.85
250.173	4.15
250.309	-5.85
250.446	9.15
250.582	-1.85
250.719	-26.85
250.856	-10.85
250.992	-0.85
251.129	-10.85
251.265	-21.85
251.402	8.15
251.538	-8.85
251.675	-9.85
251.811	13.15
251.948	21.15
252.084	-4.85
252.221	2.15
252.357	4.15
252.493	6.15
252.63	-8.85
252.766	16.15
252.903	7.15
253.039	-5.85
253.175	-9.85
253.312	4.15
253.448	-5.85
253.585	-15.85
253.721	9.15
253.857	-3.85
253.994	4.15
254.13	1.15
254.266	11.15
254.403	2.15
254.539	3.15
254.675	-15.85
254.811	-15.85
254.948	6.15
255.084	1.15
255.22	-19.85
255.356	-13.85
255.493	-6.85
255.629	-3.85
255.765	1.15
255.901	1.15
256.037	-3.85
256.174	5.15
256.31	-2.85
256.446	-4.85
256.582	-5.85
256.718	9.15
256.854	20.15
256.991	-13.85
257.127	0.15
257.263	0.15
257.399	8.15
257.535	-12.85
257.671	1.15
257.807	-10.85
257.943	-26.85
258.079	-7.85
258.215	0.15
258.351	-7.85
258.487	-4.85
258.623	24.15
258.759	-0.85
258.895	-3.85
259.031	-23.85
259.167	-30.85
259.303	10.15
259.439	11.15
259.575	-3.85
259.711	-18.85
259.847	-1.85
259.983	4.15
260.119	3.15
260.255	-4.85
260.391	7.15
260.527	22.15
260.663	-3.85
260.799	-9.85
260.934	15.15
261.07	-18.85
261.206	-21.85
261.342	-14.85
261.478	10.15
261.614	10.15
261.749	-2.85
261.885	-1.85
262.021	16.15
262.157	25.15
262.293	4.15
262.428	-5.85
262.564	7.15
262.7	8.15
262.836	6.15
262.971	19.15
263.107	3.15
263.243	8.15
263.378	-10.85
263.514	-15.85
263.65	7.15
263.785	-20.85
263.921	-14.85
264.057	4.15
264.192	13.15
264.328	20.15
264.464	-2.85
264.599	2.15
264.735	23.15
264.871	4.15
265.006	-1.85
265.142	5.15
265.277	4.15
265.413	18.15
265.548	11.15
265.684	14.15
265.819	-0.85
265.955	-25.85
266.091	-20.85
266.226	1.15
266.362	6.15
266.497	10.15
266.633	-1.85
266.768	-1.85
266.903	8.15
267.039	7.15
267.174	17.15
267.31	-9.85
267.445	-0.85
267.581	-4.85
267.716	-12.85
267.851	4.15
267.987	-5.85
268.122	27.15
268.258	-4.85
268.393	-12.85
268.528	7.15
268.664	-28.85
268.799	-15.85
268.934	9.15
269.07	-6.85
269.205	-1.85
269.34	6.15
269.476	6.15
269.611	-15.85
269.746	21.15
269.881	4.15
270.017	10.15
270.152	13.15
270.287	10.15
270.422	4.15
270.558	-12.85
270.693	6.15
270.828	-6.85
270.963	-2.85
271.098	0.15
271.234	6.15
271.369	6.15
271.504	-22.85
271.639	-15.85
271.774	3.15
271.909	3.15
272.045	-31.85
272.18	0.15
272.315	7.15
272.45	17.15
272.585	-20.85
272.72	3.15
272.855	5.15
272.99	6.15
273.125	0.15
273.26	-1.85
273.395	-11.85
273.53	-5.85
273.665	13.15
273.8	14.15
273.935	4.15
274.07	5.15
274.205	14.15
274.34	-5.85
274.475	7.15
274.61	21.15
274.745	6.15
274.88	24.15
275.015	-13.85
275.15	-14.85
275.285	19.15
275.42	-3.85
275.555	0.15
275.69	10.15
275.825	-2.85
275.959	10.15
276.094	4.15
276.229	5.15
276.364	14.15
276.499	-1.85
276.634	-4.85
276.768	5.15
276.903	14.15
277.038	25.15
277.173	-5.85
277.308	-3.85
277.442	-8.85
277.577	6.15
277.712	3.15
277.847	4.15
277.981	14.15
278.116	-30.85
278.251	-6.85
278.386	-15.85
278.52	0.15
278.655	-0.85
278.79	1.15
278.924	3.15
279.059	12.15
279.194	-17.85
279.328	35.15
279.463	-0.85
279.598	4.15
279.732	-0.85
279.867	12.15
280.001	19.15
280.136	-7.85
280.271	-9.85
280.405	13.15
280.54	-11.85
280.674	-9.85
280.809	21.15
280.943	4.15
281.078	-1.85
281.213	17.15
281.347	8.15
281.482	18.15
281.616	-17.85
281.751	7.15
281.885	-9.85
282.02	4.15
282.154	6.15
282.288	-5.85
282.423	-2.85
282.557	-20.85
282.692	0.15
282.826	-17.85
282.961	4.15
283.095	4.15
283.229	-7.85
283.364	-12.85
283.498	-2.85
283.633	12.15
283.767	1.15
283.901	-12.85
284.036	4.15
284.17	8.15
284.304	-20.85
284.439	-0.85
284.573	8.15
284.707	18.15
284.842	-7.85
284.976	-3.85
285.11	-6.85
285.244	9.15
285.379	48.15
285.513	-12.85
285.647	15.15
285.781	8.15
285.916	23.15
286.05	-7.85
286.184	25.15
286.318	24.15
286.453	-3.85
286.587	-12.85
286.721	8.15
286.855	-4.85
286.989	8.15
287.123	-0.85
287.258	-5.85
287.392	-8.85
287.526	11.15
287.66	-5.85
287.794	5.15
287.928	-6.85
288.062	-7.85
288.196	-8.85
288.33	10.15
288.464	9.15
288.598	4.15
288.733	8.15
288.867	16.15
289.001	-7.85
289.135	-3.85
289.269	3.15
289.403	-9.85
289.537	6.15
289.671	6.15
289.805	-8.85
289.939	13.15
290.073	20.15
290.207	24.15
290.34	13.15
290.474	27.15
290.608	26.15
290.742	-3.85
290.876	4.15
291.01	19.15
291.144	19.15
291.278	37.15
291.412	8.15
291.546	-9.85
291.679	-14.85
291.813	6.15
291.947	10.15
292.081	-2.85
292.215	-7.85
292.349	26.15
292.482	15.15
292.616	15.15
292.75	5.15
292.884	13.15
293.018	-6.85
293.151	0.15
293.285	0.15
293.419	-7.85
293.553	-5.85
293.686	-5.85
293.82	23.15
293.954	16.15
294.088	22.15
294.221	-17.85
294.355	6.15
294.489	2.15
294.622	-8.85
294.756	-6.85
294.89	3.15
295.023	28.15
295.157	11.15
295.291	-14.85
295.424	30.15
295.558	-6.85
295.691	-1.85
295.825	12.15
295.959	16.15
296.092	-8.85
296.226	-15.85
296.359	4.15
296.493	16.15
296.627	-0.85
296.76	4.15
296.894	-5.85
297.027	6.15
297.161	15.15
297.294	-1.85
297.428	0.15
297.561	26.15
297.695	-7.85
297.828	16.15
297.962	-6.85
298.095	-0.85
298.229	8.15
298.362	-15.85
298.495	-8.85
298.629	-11.85
298.762	-9.85
298.896	8.15
299.029	-13.85
299.162	6.15
299.296	8.15
299.429	-16.85
299.563	-12.85
299.696	14.15
299.829	11.15
299.963	3.15
300.096	13.15
300.229	35.15
300.363	10.15
300.496	13.15
300.629	-7.85
300.763	16.15
300.896	-7.85
301.029	6.15
301.162	13.15
301.296	-6.85
301.429	-6.85
301.562	-16.85
301.695	-1.85
301.829	14.15
301.962	15.15
302.095	14.15
302.228	-8.85
302.362	-8.85
302.495	-13.85
302.628	11.15
302.761	-3.85
302.894	25.15
303.027	10.15
303.161	-13.85
303.294	-4.85
303.427	13.15
303.56	11.15
303.693	3.15
303.826	-4.85
303.959	6.15
304.092	-5.85
304.225	-21.85
304.359	-4.85
304.492	3.15
304.625	-13.85
304.758	2.15
304.891	-13.85
305.024	1.15
305.157	-6.85
305.29	7.15
305.423	6.15
305.556	-3.85
305.689	18.15
305.822	3.15
305.955	19.15
306.088	2.15
306.221	8.15
306.354	10.15
306.487	5.15
306.62	-7.85
306.752	11.15
306.885	9.15
307.018	-5.85
307.151	-4.85
307.284	1.15
307.417	-22.85
307.55	-11.85
307.683	-7.85
307.816	3.15
307.948	10.15
308.081	16.15
308.214	9.15
308.347	15.15
308.48	-5.85
308.613	-2.85
308.745	0.15
308.878	4.15
309.011	-6.85
309.144	-14.85
309.277	-3.85
309.409	23.15
309.542	2.15
309.675	22.15
309.808	4.15
309.94	29.15
310.073	-21.85
310.206	-13.85
310.339	17.15
310.471	-13.85
310.604	8.15
310.737	7.15
310.869	8.15
311.002	-9.85
311.135	0.15
311.267	-11.85
311.4	-25.85
311.533	13.15
311.665	6.15
311.798	-2.85
311.93	0.15
312.063	15.15
312.196	45.15
312.328	74.15
312.461	54.15
312.593	32.15
312.726	69.15
312.859	107.15
312.991	172.15
313.124	40.15
313.256	21.15
313.389	-8.85
313.521	-8.85
313.654	-0.85
313.786	-21.85
313.919	-0.85
314.051	4.15
314.184	11.15
314.316	19.15
314.449	-12.85
314.581	-6.85
314.714	-1.85
314.846	4.15
314.978	-10.85
315.111	-5.85
315.243	15.15
315.376	22.15
315.508	-5.85
315.641	4.15
315.773	4.15
315.905	16.15
316.038	-4.85
316.17	-3.85
316.302	-8.85
316.435	7.15
316.567	13.15
316.699	20.15
316.832	-12.85
316.964	-20.85
317.096	-2.85
317.229	-7.85
317.361	-22.85
317.493	-3.85
317.625	-7.85
317.758	2.15
317.89	10.15
318.022	-6.85
318.155	-3.85
318.287	8.15
318.419	-4.85
318.551	-15.85
318.683	4.15
318.816	-6.85
318.948	9.15
319.08	11.15
319.212	12.15
319.344	-9.85
319.477	12.15
319.609	-11.85
319.741	10.15
319.873	13.15
320.005	6.15
320.137	1.15
320.269	8.15
320.401	1.15
320.534	-1.85
320.666	-25.85
320.798	-5.85
320.93	-2.85
321.062	7.15
321.194	-5.85
321.326	-1.85
321.458	5.15
321.59	1.15
321.722	8.15
321.854	7.15
321.986	-8.85
322.118	16.15
322.25	0.15
322.382	16.15
322.514	14.15
322.646	0.15
322.778	14.15
322.91	-17.85
323.042	9.15
323.174	1.15
323.306	-11.85
323.438	-5.85
323.57	-7.85
323.702	1.15
323.834	0.15
323.966	-19.85
324.097	1.15
324.229	16.15
324.361	33.15
324.493	12.15
324.625	-15.85
324.757	7.15
324.889	15.15
325.021	23.15
325.152	1.15
325.284	22.15
325.416	-15.85
325.548	1.15
325.68	4.15
325.811	20.15
325.943	19.15
326.075	-0.85
326.207	4.15
326.339	2.15
326.47	-3.85
326.602	3.15
326.734	1.15
326.866	2.15
326.997	-13.85
327.129	-6.85
327.261	-5.85
327.392	2.15
327.524	-0.85
327.656	3.15
327.787	-2.85
327.919	3.15
328.051	4.15
328.182	21.15
328.314	22.15
328.446	13.15
328.577	14.15
328.709	-0.85
328.841	7.15
328.972	-13.85
329.104	-4.85
329.235	22.15
329.367	0.15
329.499	2.15
329.63	23.15
329.762	-1.85
329.893	10.15
330.025	9.15
330.156	-1.85
330.288	15.15
330.419	13.15
330.551	11.15
330.683	-1.85
330.814	7.15
330.946	31.15
331.077	-2.85
331.208	-8.85
331.34	1.15
331.471	-17.85
331.603	-0.85
331.734	-5.85
331.866	-15.85
331.997	6.15
332.129	-6.85
332.26	-6.85
332.392	7.15
332.523	10.15
332.654	-4.85
332.786	19.15
332.917	-3.85
333.048	22.15
333.18	30.15
333.311	3.15
333.443	4.15
333.574	6.15
333.705	46.15
333.837	47.15
333.968	127.15
334.099	241.15
334.231	170.15
334.362	34.15
334.493	41.15
334.624	27.15
334.756	6.15
334.887	8.15
335.018	7.15
335.15	29.15
335.281	14.15
335.412	22.15
335.543	9.15
335.675	8.15
335.806	11.15
335.937	0.15
336.068	9.15
336.199	26.15
336.331	12.15
336.462	18.15
336.593	23.15
336.724	3.15
336.855	15.15
336.986	28.15
337.118	5.15
337.249	26.15
337.38	-2.85
337.511	13.15
337.642	15.15
337.773	6.15
337.904	5.15
338.035	14.15
338.166	3.15
338.298	5.15
338.429	8.15
338.56	13.15
338.691	11.15
338.822	5.15
338.953	1.15
339.084	24.15
339.215	32.15
339.346	9.15
339.477	21.15
339.608	13.15
339.739	13.15
339.87	6.15
340.001	3.15
340.132	3.15
340.263	3.15
340.394	22.15
340.525	15.15
340.656	6.15
340.787	-4.85
340.918	23.15
341.049	19.15
341.179	-7.85
341.31	0.15
341.441	8.15
341.572	6.15
341.703	-11.85
341.834	-14.85
341.965	8.15
342.096	-7.85
342.227	29.15
342.357	16.15
342.488	5.15
342.619	20.15
342.75	25.15
342.881	9.15
343.012	20.15
343.142	32.15
343.273	15.15
343.404	6.15
343.535	50.15
343.666	17.15
343.796	38.15
343.927	26.15
344.058	24.15
344.189	22.15
344.319	29.15
344.45	18.15
344.581	15.15
344.712	-1.85
344.842	21.15
344.973	20.15
345.104	30.15
345.234	23.15
345.365	23.15
345.496	18.15
345.626	19.15
345.757	6.15
345.888	8.15
346.018	32.15
346.149	23.15
346.28	42.15
346.41	19.15
346.541	16.15
346.672	-3.85
346.802	13.15
346.933	20.15
347.063	25.15
347.194	24.15
347.325	28.15
347.455	26.15
347.586	33.15
347.716	25.15
347.847	34.15
347.977	30.15
348.108	43.15
348.238	44.15
348.369	53.15
348.499	40.15
348.63	29.15
348.76	53.15
348.891	45.15
349.021	55.15
349.152	47.15
349.282	54.15
349.413	31.15
349.543	49.15
349.674	19.15
349.804	37.15
349.935	15.15
350.065	21.15
350.196	17.15
350.326	31.15
350.456	0.15
350.587	35.15
350.717	16.15
350.848	29.15
350.978	19.15
351.108	23.15
351.239	27.15
351.369	32.15
351.499	30.15
351.63	23.15
351.76	20.15
351.89	23.15
352.021	29.15
352.151	9.15
352.281	24.15
352.412	20.15
352.542	27.15
352.672	38.15
352.803	20.15
352.933	31.15
353.063	24.15
353.193	22.15
353.324	-10.85
353.454	16.15
353.584	27.15
353.714	23.15
353.845	-1.85
353.975	16.15
354.105	3.15
354.235	15.15
354.365	35.15
354.496	33.15
354.626	26.15
354.756	23.15
354.886	10.15
355.016	28.15
355.146	21.15
355.277	22.15
355.407	23.15
355.537	15.15
355.667	24.15
355.797	50.15
355.927	20.15
356.057	44.15
356.187	30.15
356.318	28.15
356.448	26.15
356.578	24.15
356.708	11.15
356.838	22.15
356.968	31.15
357.098	31.15
357.228	25.15
357.358	30.15
357.488	28.15
357.618	53.15
357.748	63.15
357.878	40.15
358.008	27.15
358.138	36.15
358.268	18.15
358.398	40.15
358.528	22.15
358.658	35.15
358.788	32.15
358.918	48.15
359.048	38.15
359.178	30.15
359.308	7.15
359.438	36.15
359.568	33.15
359.698	36.15
359.827	48.15
359.957	41.15
360.087	52.15
360.217	33.15
360.347	26.15
360.477	25.15
360.607	5.15
360.737	29.15
360.866	38.15
360.996	30.15
361.126	10.15
361.256	30.15
361.386	48.15
361.516	48.15
361.645	11.15
361.775	44.15
361.905	25.15
362.035	35.15
362.165	36.15
362.294	45.15
362.424	32.15
362.554	29.15
362.684	38.15
362.813	46.15
362.943	49.15
363.073	51.15
363.203	74.15
363.332	74.15
363.462	85.15
363.592	96.15
363.721	135.15
363.851	162.15
363.981	207.15
364.111	238.15
364.24	318.15
364.37	486.15
364.5	848.15
364.629	1828.15
364.759	3814.15
364.888	6260.15
365.018	9489.15
365.148	14824.15
365.277	12917.15
365.407	4783.15
365.537	3093.15
365.666	4029.15
365.796	1826.15
365.925	800.15
366.055	744.15
366.184	1000.15
366.314	1377.15
366.444	2464.15
366.573	2101.15
366.703	662.15
366.832	212.15
366.962	109.15
367.091	73.15
367.221	70.15
367.35	68.15
367.48	88.15
367.609	58.15
367.739	44.15
367.868	27.15
367.998	32.15
368.127	50.15
368.257	49.15
368.386	39.15
368.516	36.15
368.645	34.15
368.775	30.15
368.904	31.15
369.033	18.15
369.163	17.15
369.292	43.15
369.422	34.15
369.551	45.15
369.68	45.15
369.81	47.15
369.939	39.15
370.069	61.15
370.198	43.15
370.327	36.15
370.457	45.15
370.586	43.15
370.715	31.15
370.845	13.15
370.974	43.15
371.103	47.15
371.233	46.15
371.362	48.15
371.491	44.15
371.621	69.15
371.75	46.15
371.879	60.15
372.008	68.15
372.138	43.15
372.267	67.15
372.396	48.15
372.525	28.15
372.655	20.15
372.784	40.15
372.913	22.15
373.042	23.15
373.172	29.15
373.301	-1.85
373.43	4.15
373.559	9.15
373.688	23.15
373.818	32.15
373.947	37.15
374.076	20.15
374.205	51.15
374.334	29.15
374.463	28.15
374.593	31.15
374.722	19.15
374.851	24.15
374.98	15.15
375.109	23.15
375.238	27.15
375.367	27.15
375.496	15.15
375.625	15.15
375.755	27.15
375.884	32.15
376.013	11.15
376.142	9.15
376.271	16.15
376.4	23.15
376.529	15.15
376.658	20.15
376.787	15.15
376.916	31.15
377.045	35.15
377.174	19.15
377.303	8.15
377.432	38.15
377.561	23.15
377.69	8.15
377.819	29.15
377.948	19.15
378.077	7.15
378.206	17.15
378.335	29.15
378.464	24.15
378.593	30.15
378.722	-0.85
378.851	21.15
378.98	18.15
379.108	-0.85
379.237	9.15
379.366	41.15
379.495	31.15
379.624	15.15
379.753	35.15
379.882	19.15
380.011	-0.85
380.14	7.15
380.268	14.15
380.397	9.15
380.526	11.15
380.655	8.15
380.784	6.15
380.913	-6.85
381.041	-0.85
381.17	-4.85
381.299	11.15
381.428	29.15
381.557	3.15
381.685	-0.85
381.814	29.15
381.943	12.15
382.072	3.15
382.2	16.15
382.329	8.15
382.458	23.15
382.587	31.15
382.715	35.15
382.844	21.15
382.973	19.15
383.102	23.15
383.23	14.15
383.359	2.15
383.488	19.15
383.616	17.15
383.745	-7.85
383.874	10.15
384.003	28.15
384.131	18.15
384.26	20.15
384.389	20.15
384.517	5.15
384.646	9.15
384.774	22.15
384.903	33.15
385.032	27.15
385.16	17.15
385.289	18.15
385.418	10.15
385.546	19.15
385.675	12.15
385.803	9.15
385.932	32.15
386.06	12.15
386.189	25.15
386.318	2.15
386.446	20.15
386.575	29.15
386.703	25.15
386.832	22.15
386.96	4.15
387.089	19.15
387.217	7.15
387.346	22.15
387.474	16.15
387.603	32.15
387.731	21.15
387.86	38.15
387.988	30.15
388.117	28.15
388.245	22.15
388.374	5.15
388.502	34.15
388.631	13.15
388.759	18.15
388.888	23.15
389.016	22.15
389.144	15.15
389.273	36.15
389.401	16.15
389.53	9.15
389.658	37.15
389.786	9.15
389.915	9.15
390.043	3.15
390.172	15.15
390.3	35.15
390.428	25.15
390.557	30.15
390.685	37.15
390.813	43.15
390.942	25.15
391.07	20.15
391.198	9.15
391.327	32.15
391.455	15.15
391.583	36.15
391.712	27.15
391.84	28.15
391.968	5.15
392.096	7.15
392.225	-2.85
392.353	28.15
392.481	29.15
392.609	36.15
392.738	24.15
392.866	31.15
392.994	26.15
393.122	38.15
393.251	14.15
393.379	29.15
393.507	14.15
393.635	12.15
393.764	48.15
393.892	42.15
394.02	20.15
394.148	22.15
394.276	16.15
394.404	53.15
394.533	30.15
394.661	13.15
394.789	24.15
394.917	31.15
395.045	24.15
395.173	11.15
395.302	19.15
395.43	23.15
395.558	44.15
395.686	36.15
395.814	41.15
395.942	10.15
396.07	25.15
396.198	34.15
396.326	32.15
396.454	38.15
396.582	42.15
396.711	29.15
396.839	50.15
396.967	43.15
397.095	19.15
397.223	34.15
397.351	59.15
397.479	46.15
397.607	34.15
397.735	52.15
397.863	32.15
397.991	48.15
398.119	31.15
398.247	41.15
398.375	40.15
398.503	49.15
398.631	43.15
398.759	50.15
398.887	53.15
399.015	35.15
399.143	41.15
399.271	51.15
399.399	62.15
399.526	63.15
399.654	83.15
399.782	55.15
399.91	79.15
400.038	103.15
400.166	78.15
400.294	81.15
400.422	97.15
400.55	106.15
400.678	109.15
400.805	110.15
400.933	107.15
401.061	111.15
401.189	111.15
401.317	136.15
401.445	98.15
401.573	69.15
401.7	45.15
401.828	42.15
401.956	40.15
402.084	49.15
402.212	55.15
402.34	34.15
402.467	38.15
402.595	35.15
402.723	23.15
402.851	56.15
402.978	53.15
403.106	78.15
403.234	84.15
403.362	104.15
403.489	130.15
403.617	167.15
403.745	204.15
403.873	269.15
404	572.15
404.128	1453.15
404.256	3930.15
404.384	5107.15
404.511	5482.15
404.639	7230.15
404.767	11535.15
404.894	14675.15
405.022	4946.15
405.15	1331.15
405.277	443.15
405.405	257.15
405.533	135.15
405.66	128.15
405.788	55.15
405.916	70.15
406.043	49.15
406.171	41.15
406.299	63.15
406.426	64.15
406.554	43.15
406.681	61.15
406.809	37.15
406.937	48.15
407.064	69.15
407.192	137.15
407.319	301.15
407.447	529.15
407.574	517.15
407.702	615.15
407.83	853.15
407.957	1624.15
408.085	938.15
408.212	280.15
408.34	96.15
408.467	52.15
408.595	41.15
408.722	45.15
408.85	45.15
408.977	41.15
409.105	23.15
409.232	40.15
409.36	35.15
409.487	19.15
409.615	32.15
409.742	42.15
409.87	23.15
409.997	36.15
410.125	32.15
410.252	25.15
410.379	26.15
410.507	28.15
410.634	24.15
410.762	33.15
410.889	58.15
411.017	39.15
411.144	21.15
411.271	11.15
411.399	10.15
411.526	11.15
411.653	30.15
411.781	55.15
411.908	50.15
412.036	35.15
412.163	52.15
412.29	39.15
412.418	20.15
412.545	24.15
412.672	18.15
412.8	48.15
412.927	37.15
413.054	52.15
413.182	30.15
413.309	23.15
413.436	15.15
413.564	16.15
413.691	36.15
413.818	31.15
413.945	14.15
414.073	30.15
414.2	43.15
414.327	31.15
414.454	41.15
414.582	42.15
414.709	8.15
414.836	19.15
414.963	31.15
415.091	26.15
415.218	9.15
415.345	29.15
415.472	25.15
415.6	10.15
415.727	31.15
415.854	17.15
415.981	24.15
416.108	24.15
416.236	16.15
416.363	21.15
416.49	14.15
416.617	33.15
416.744	46.15
416.871	38.15
416.998	30.15
417.126	20.15
417.253	14.15
417.38	28.15
417.507	36.15
417.634	35.15
417.761	30.15
417.888	15.15
418.015	40.15
418.143	23.15
418.27	40.15
418.397	27.15
418.524	33.15
418.651	10.15
418.778	39.15
418.905	62.15
419.032	34.15
