Data from LowRes_mercury_15_20_11_07_2024_HR4C61881__5__15-23-32-771.txt Node

Date: Thu Nov 07 15:23:32 EST 2024
User: crc00042
Spectrometer: HR4C6188
Trigger mode: 4
Integration Time (sec): 1.000000E-1
Scans to average: 1
Electric dark correction enabled: true
Nonlinearity correction enabled: false
Boxcar width: 0
XAxis mode: Wavelengths
Number of Pixels in Spectrum: 3648
>>>>>Begin Spectral Data<<<<<
245.66	-65.46
245.797	-65.46
245.934	-65.46
246.071	-66.46
246.208	23.54
246.344	-6.46
246.481	-12.46
246.618	-10.46
246.755	5.54
246.892	-20.46
247.029	-16.46
247.165	-4.46
247.302	8.54
247.439	-0.46
247.576	19.54
247.713	9.54
247.849	28.54
247.986	-0.46
248.123	14.54
248.26	-10.46
248.396	5.54
248.533	2.54
248.67	-16.46
248.806	16.54
248.943	16.54
249.08	5.54
249.216	6.54
249.353	-19.46
249.49	5.54
249.626	7.54
249.763	2.54
249.9	-22.46
250.036	-10.46
250.173	2.54
250.309	-4.46
250.446	12.54
250.582	6.54
250.719	-1.46
250.856	-3.46
250.992	-15.46
251.129	-21.46
251.265	10.54
251.402	6.54
251.538	1.54
251.675	-11.46
251.811	9.54
251.948	19.54
252.084	14.54
252.221	-6.46
252.357	-14.46
252.493	18.54
252.63	4.54
252.766	17.54
252.903	2.54
253.039	-7.46
253.175	-7.46
253.312	-6.46
253.448	-0.46
253.585	-25.46
253.721	19.54
253.857	-7.46
253.994	9.54
254.13	15.54
254.266	2.54
254.403	-8.46
254.539	8.54
254.675	6.54
254.811	7.54
254.948	-8.46
255.084	5.54
255.22	-7.46
255.356	0.54
255.493	4.54
255.629	10.54
255.765	6.54
255.901	0.54
256.037	18.54
256.174	5.54
256.31	-8.46
256.446	-21.46
256.582	-13.46
256.718	18.54
256.854	36.54
256.991	18.54
257.127	25.54
257.263	-12.46
257.399	-4.46
257.535	-3.46
257.671	-6.46
257.807	-3.46
257.943	6.54
258.079	-13.46
258.215	-11.46
258.351	5.54
258.487	1.54
258.623	24.54
258.759	-1.46
258.895	-3.46
259.031	14.54
259.167	-23.46
259.303	20.54
259.439	-3.46
259.575	7.54
259.711	-1.46
259.847	5.54
259.983	9.54
260.119	1.54
260.255	-2.46
260.391	15.54
260.527	21.54
260.663	15.54
260.799	9.54
260.934	-5.46
261.07	-1.46
261.206	-12.46
261.342	-3.46
261.478	13.54
261.614	8.54
261.749	-6.46
261.885	-13.46
262.021	7.54
262.157	17.54
262.293	2.54
262.428	-3.46
262.564	-10.46
262.7	21.54
262.836	15.54
262.971	7.54
263.107	14.54
263.243	14.54
263.378	3.54
263.514	-8.46
263.65	22.54
263.785	-10.46
263.921	-9.46
264.057	-0.46
264.192	27.54
264.328	23.54
264.464	-3.46
264.599	1.54
264.735	19.54
264.871	-6.46
265.006	13.54
265.142	16.54
265.277	9.54
265.413	37.54
265.548	29.54
265.684	14.54
265.819	-6.46
265.955	-21.46
266.091	-25.46
266.226	-2.46
266.362	0.54
266.497	8.54
266.633	1.54
266.768	-9.46
266.903	2.54
267.039	25.54
267.174	28.54
267.31	5.54
267.445	-6.46
267.581	-8.46
267.716	7.54
267.851	14.54
267.987	-3.46
268.122	21.54
268.258	-9.46
268.393	-2.46
268.528	9.54
268.664	-13.46
268.799	-8.46
268.934	-4.46
269.07	0.54
269.205	-1.46
269.34	24.54
269.476	21.54
269.611	-20.46
269.746	9.54
269.881	1.54
270.017	11.54
270.152	5.54
270.287	-8.46
270.422	-2.46
270.558	-20.46
270.693	10.54
270.828	4.54
270.963	6.54
271.098	-2.46
271.234	12.54
271.369	19.54
271.504	1.54
271.639	-13.46
271.774	-21.46
271.909	0.54
272.045	-16.46
272.18	0.54
272.315	-0.46
272.45	1.54
272.585	-17.46
272.72	-2.46
272.855	-0.46
272.99	16.54
273.125	-20.46
273.26	-14.46
273.395	-13.46
273.53	-5.46
273.665	7.54
273.8	0.54
273.935	15.54
274.07	1.54
274.205	5.54
274.34	8.54
274.475	-8.46
274.61	10.54
274.745	-2.46
274.88	9.54
275.015	-10.46
275.15	6.54
275.285	27.54
275.42	13.54
275.555	16.54
275.69	9.54
275.825	0.54
275.959	0.54
276.094	-4.46
276.229	-7.46
276.364	-6.46
276.499	0.54
276.634	-12.46
276.768	-12.46
276.903	8.54
277.038	20.54
277.173	12.54
277.308	-2.46
277.442	-0.46
277.577	-11.46
277.712	-3.46
277.847	6.54
277.981	25.54
278.116	-7.46
278.251	-5.46
278.386	-2.46
278.52	0.54
278.655	1.54
278.79	25.54
278.924	24.54
279.059	10.54
279.194	-5.46
279.328	46.54
279.463	14.54
279.598	23.54
279.732	35.54
279.867	22.54
280.001	11.54
280.136	11.54
280.271	7.54
280.405	2.54
280.54	-3.46
280.674	4.54
280.809	28.54
280.943	1.54
281.078	-4.46
281.213	17.54
281.347	11.54
281.482	3.54
281.616	-2.46
281.751	9.54
281.885	-5.46
282.02	-1.46
282.154	5.54
282.288	-17.46
282.423	-9.46
282.557	-23.46
282.692	1.54
282.826	8.54
282.961	24.54
283.095	-6.46
283.229	5.54
283.364	-2.46
283.498	-3.46
283.633	13.54
283.767	19.54
283.901	5.54
284.036	4.54
284.17	-10.46
284.304	-10.46
284.439	5.54
284.573	-1.46
284.707	25.54
284.842	0.54
284.976	-8.46
285.11	-17.46
285.244	5.54
285.379	32.54
285.513	-7.46
285.647	8.54
285.781	9.54
285.916	25.54
286.05	1.54
286.184	14.54
286.318	26.54
286.453	-3.46
286.587	-8.46
286.721	-20.46
286.855	15.54
286.989	14.54
287.123	5.54
287.258	-6.46
287.392	8.54
287.526	6.54
287.66	4.54
287.794	-4.46
287.928	-4.46
288.062	-2.46
288.196	9.54
288.33	20.54
288.464	22.54
288.598	32.54
288.733	6.54
288.867	21.54
289.001	1.54
289.135	14.54
289.269	9.54
289.403	-10.46
289.537	-1.46
289.671	-1.46
289.805	-3.46
289.939	17.54
290.073	5.54
290.207	10.54
290.34	3.54
290.474	17.54
290.608	5.54
290.742	-15.46
290.876	-13.46
291.01	-0.46
291.144	19.54
291.278	15.54
291.412	12.54
291.546	-11.46
291.679	-4.46
291.813	-4.46
291.947	9.54
292.081	-3.46
292.215	-5.46
292.349	-1.46
292.482	11.54
292.616	-7.46
292.75	10.54
292.884	12.54
293.018	-11.46
293.151	-14.46
293.285	11.54
293.419	-7.46
293.553	11.54
293.686	-0.46
293.82	-3.46
293.954	12.54
294.088	32.54
294.221	-8.46
294.355	2.54
294.489	16.54
294.622	-3.46
294.756	2.54
294.89	16.54
295.023	7.54
295.157	15.54
295.291	14.54
295.424	25.54
295.558	2.54
295.691	11.54
295.825	14.54
295.959	4.54
296.092	12.54
296.226	6.54
296.359	2.54
296.493	15.54
296.627	13.54
296.76	1.54
296.894	10.54
297.027	13.54
297.161	-13.46
297.294	-12.46
297.428	2.54
297.561	15.54
297.695	-20.46
297.828	-15.46
297.962	-12.46
298.095	-10.46
298.229	-4.46
298.362	-9.46
298.495	-6.46
298.629	-12.46
298.762	-13.46
298.896	-5.46
299.029	-17.46
299.162	0.54
299.296	7.54
299.429	-7.46
299.563	-0.46
299.696	11.54
299.829	3.54
299.963	17.54
300.096	24.54
300.229	4.54
300.363	9.54
300.496	-11.46
300.629	-10.46
300.763	2.54
300.896	5.54
301.029	-3.46
301.162	25.54
301.296	1.54
301.429	21.54
301.562	-14.46
301.695	4.54
301.829	29.54
301.962	23.54
302.095	5.54
302.228	10.54
302.362	7.54
302.495	-4.46
302.628	4.54
302.761	-24.46
302.894	2.54
303.027	0.54
303.161	-7.46
303.294	-15.46
303.427	32.54
303.56	15.54
303.693	-9.46
303.826	-20.46
303.959	1.54
304.092	-8.46
304.225	-11.46
304.359	0.54
304.492	11.54
304.625	-0.46
304.758	5.54
304.891	-10.46
305.024	2.54
305.157	-16.46
305.29	-2.46
305.423	-4.46
305.556	24.54
305.689	21.54
305.822	4.54
305.955	8.54
306.088	0.54
306.221	-5.46
306.354	-10.46
306.487	-8.46
306.62	-16.46
306.752	14.54
306.885	15.54
307.018	13.54
307.151	14.54
307.284	17.54
307.417	-23.46
307.55	12.54
307.683	9.54
307.816	-1.46
307.948	3.54
308.081	26.54
308.214	21.54
308.347	46.54
308.48	-15.46
308.613	-23.46
308.745	16.54
308.878	0.54
309.011	6.54
309.144	12.54
309.277	5.54
309.409	9.54
309.542	-8.46
309.675	4.54
309.808	4.54
309.94	8.54
310.073	2.54
310.206	2.54
310.339	6.54
310.471	-13.46
310.604	17.54
310.737	-8.46
310.869	-2.46
311.002	10.54
311.135	4.54
311.267	-18.46
311.4	6.54
311.533	24.54
311.665	2.54
311.798	2.54
311.93	19.54
312.063	35.54
312.196	66.54
312.328	110.54
312.461	47.54
312.593	23.54
312.726	32.54
312.859	93.54
312.991	174.54
313.124	28.54
313.256	8.54
313.389	1.54
313.521	-2.46
313.654	20.54
313.786	-7.46
313.919	-3.46
314.051	-8.46
314.184	16.54
314.316	8.54
314.449	-13.46
314.581	-1.46
314.714	-5.46
314.846	8.54
314.978	8.54
315.111	-11.46
315.243	-7.46
315.376	-10.46
315.508	14.54
315.641	12.54
315.773	30.54
315.905	8.54
316.038	17.54
316.17	9.54
316.302	8.54
316.435	-5.46
316.567	-9.46
316.699	1.54
316.832	-4.46
316.964	-15.46
317.096	-7.46
317.229	-16.46
317.361	-0.46
317.493	-16.46
317.625	-4.46
317.758	0.54
317.89	18.54
318.022	6.54
318.155	8.54
318.287	15.54
318.419	9.54
318.551	4.54
318.683	12.54
318.816	-2.46
318.948	-2.46
319.08	-16.46
319.212	27.54
319.344	2.54
319.477	-13.46
319.609	9.54
319.741	20.54
319.873	12.54
320.005	-6.46
320.137	-5.46
320.269	10.54
320.401	17.54
320.534	3.54
320.666	-13.46
320.798	-8.46
320.93	13.54
321.062	-8.46
321.194	-11.46
321.326	-13.46
321.458	-10.46
321.59	-15.46
321.722	-7.46
321.854	-5.46
321.986	3.54
322.118	25.54
322.25	-2.46
322.382	1.54
322.514	0.54
322.646	0.54
322.778	22.54
322.91	7.54
323.042	-8.46
323.174	6.54
323.306	-8.46
323.438	-23.46
323.57	13.54
323.702	-3.46
323.834	-7.46
323.966	-11.46
324.097	-12.46
324.229	9.54
324.361	9.54
324.493	22.54
324.625	-14.46
324.757	14.54
324.889	22.54
325.021	10.54
325.152	7.54
325.284	32.54
325.416	-1.46
325.548	17.54
325.68	1.54
325.811	-1.46
325.943	10.54
326.075	12.54
326.207	20.54
326.339	14.54
326.47	-4.46
326.602	17.54
326.734	15.54
326.866	13.54
326.997	3.54
327.129	8.54
327.261	7.54
327.392	-6.46
327.524	-2.46
327.656	12.54
327.787	-1.46
327.919	-5.46
328.051	11.54
328.182	36.54
328.314	27.54
328.446	-3.46
328.577	17.54
328.709	20.54
328.841	0.54
328.972	-7.46
329.104	-5.46
329.235	-3.46
329.367	4.54
329.499	-4.46
329.63	9.54
329.762	9.54
329.893	6.54
330.025	-12.46
330.156	-14.46
330.288	-0.46
330.419	23.54
330.551	18.54
330.683	0.54
330.814	-23.46
330.946	19.54
331.077	-5.46
331.208	-5.46
331.34	7.54
331.471	-7.46
331.603	21.54
331.734	5.54
331.866	16.54
331.997	-1.46
332.129	12.54
332.26	20.54
332.392	10.54
332.523	1.54
332.654	-22.46
332.786	-9.46
332.917	6.54
333.048	1.54
333.18	26.54
333.311	2.54
333.443	17.54
333.574	18.54
333.705	44.54
333.837	51.54
333.968	112.54
334.099	248.54
334.231	215.54
334.362	50.54
334.493	29.54
334.624	17.54
334.756	5.54
334.887	13.54
335.018	7.54
335.15	-1.46
335.281	11.54
335.412	18.54
335.543	9.54
335.675	3.54
335.806	13.54
335.937	15.54
336.068	-4.46
336.199	36.54
336.331	-10.46
336.462	5.54
336.593	21.54
336.724	6.54
336.855	20.54
336.986	25.54
337.118	21.54
337.249	-2.46
337.38	26.54
337.511	-2.46
337.642	12.54
337.773	1.54
337.904	-0.46
338.035	1.54
338.166	9.54
338.298	15.54
338.429	9.54
338.56	5.54
338.691	26.54
338.822	12.54
338.953	9.54
339.084	5.54
339.215	14.54
339.346	19.54
339.477	19.54
339.608	25.54
339.739	14.54
339.87	16.54
340.001	4.54
340.132	0.54
340.263	10.54
340.394	12.54
340.525	8.54
340.656	6.54
340.787	3.54
340.918	28.54
341.049	10.54
341.179	10.54
341.31	14.54
341.441	14.54
341.572	9.54
341.703	21.54
341.834	13.54
341.965	31.54
342.096	-5.46
342.227	-5.46
342.357	-0.46
342.488	15.54
342.619	8.54
342.75	17.54
342.881	17.54
343.012	23.54
343.142	31.54
343.273	3.54
343.404	21.54
343.535	39.54
343.666	31.54
343.796	13.54
343.927	25.54
344.058	43.54
344.189	39.54
344.319	40.54
344.45	37.54
344.581	32.54
344.712	14.54
344.842	16.54
344.973	15.54
345.104	24.54
345.234	23.54
345.365	-9.46
345.496	13.54
345.626	20.54
345.757	41.54
345.888	8.54
346.018	23.54
346.149	38.54
346.28	49.54
346.41	28.54
346.541	54.54
346.672	15.54
346.802	50.54
346.933	16.54
347.063	30.54
347.194	20.54
347.325	28.54
347.455	44.54
347.586	35.54
347.716	26.54
347.847	27.54
347.977	29.54
348.108	40.54
348.238	58.54
348.369	24.54
348.499	46.54
348.63	48.54
348.76	46.54
348.891	49.54
349.021	70.54
349.152	48.54
349.282	42.54
349.413	37.54
349.543	54.54
349.674	50.54
349.804	28.54
349.935	29.54
350.065	19.54
350.196	30.54
350.326	37.54
350.456	27.54
350.587	57.54
350.717	28.54
350.848	23.54
350.978	23.54
351.108	15.54
351.239	24.54
351.369	21.54
351.499	21.54
351.63	29.54
351.76	1.54
351.89	16.54
352.021	22.54
352.151	16.54
352.281	23.54
352.412	30.54
352.542	15.54
352.672	7.54
352.803	10.54
352.933	30.54
353.063	27.54
353.193	14.54
353.324	32.54
353.454	36.54
353.584	40.54
353.714	37.54
353.845	13.54
353.975	16.54
354.105	6.54
354.235	16.54
354.365	26.54
354.496	12.54
354.626	42.54
354.756	38.54
354.886	14.54
355.016	24.54
355.146	1.54
355.277	17.54
355.407	16.54
355.537	43.54
355.667	25.54
355.797	9.54
355.927	12.54
356.057	11.54
356.187	-4.46
356.318	8.54
356.448	28.54
356.578	41.54
356.708	38.54
356.838	22.54
356.968	37.54
357.098	34.54
357.228	35.54
357.358	18.54
357.488	23.54
357.618	65.54
357.748	35.54
357.878	22.54
358.008	27.54
358.138	27.54
358.268	13.54
358.398	39.54
358.528	20.54
358.658	27.54
358.788	10.54
358.918	42.54
359.048	30.54
359.178	24.54
359.308	35.54
359.438	36.54
359.568	41.54
359.698	33.54
359.827	20.54
359.957	26.54
360.087	21.54
360.217	26.54
360.347	23.54
360.477	37.54
360.607	20.54
360.737	39.54
360.866	25.54
360.996	-0.46
361.126	5.54
361.256	32.54
361.386	42.54
361.516	20.54
361.645	-6.46
361.775	42.54
361.905	24.54
362.035	29.54
362.165	34.54
362.294	47.54
362.424	53.54
362.554	50.54
362.684	44.54
362.813	25.54
362.943	54.54
363.073	48.54
363.203	68.54
363.332	75.54
363.462	78.54
363.592	108.54
363.721	137.54
363.851	178.54
363.981	204.54
364.111	253.54
364.24	312.54
364.37	490.54
364.5	865.54
364.629	1909.54
364.759	3954.54
364.888	6493.54
365.018	9631.54
365.148	14916.54
365.277	13144.54
365.407	4885.54
365.537	3178.54
365.666	4161.54
365.796	1857.54
365.925	822.54
366.055	787.54
366.184	1063.54
366.314	1413.54
366.444	2519.54
366.573	2161.54
366.703	674.54
366.832	221.54
366.962	125.54
367.091	78.54
367.221	89.54
367.35	59.54
367.48	78.54
367.609	46.54
367.739	71.54
367.868	35.54
367.998	46.54
368.127	44.54
368.257	56.54
368.386	62.54
368.516	56.54
368.645	46.54
368.775	50.54
368.904	45.54
369.033	31.54
369.163	22.54
369.292	44.54
369.422	43.54
369.551	57.54
369.68	51.54
369.81	53.54
369.939	30.54
370.069	55.54
370.198	29.54
370.327	23.54
370.457	47.54
370.586	53.54
370.715	19.54
370.845	44.54
370.974	44.54
371.103	39.54
371.233	56.54
371.362	57.54
371.491	45.54
371.621	59.54
371.75	31.54
371.879	39.54
372.008	60.54
372.138	48.54
372.267	52.54
372.396	35.54
372.525	49.54
372.655	39.54
372.784	21.54
372.913	32.54
373.042	35.54
373.172	25.54
373.301	29.54
373.43	1.54
373.559	2.54
373.688	13.54
373.818	34.54
373.947	27.54
374.076	8.54
374.205	27.54
374.334	1.54
374.463	8.54
374.593	13.54
374.722	11.54
374.851	19.54
374.98	3.54
375.109	9.54
375.238	22.54
375.367	40.54
375.496	23.54
375.625	-6.46
375.755	22.54
375.884	35.54
376.013	25.54
376.142	19.54
376.271	-0.46
376.4	20.54
376.529	25.54
376.658	37.54
376.787	22.54
376.916	16.54
377.045	11.54
377.174	-9.46
377.303	23.54
377.432	45.54
377.561	22.54
377.69	20.54
377.819	27.54
377.948	26.54
378.077	29.54
378.206	16.54
378.335	11.54
378.464	14.54
378.593	54.54
378.722	17.54
378.851	13.54
378.98	33.54
379.108	21.54
379.237	23.54
379.366	27.54
379.495	37.54
379.624	13.54
379.753	10.54
379.882	12.54
380.011	-5.46
380.14	-5.46
380.268	17.54
380.397	12.54
380.526	33.54
380.655	17.54
380.784	-13.46
380.913	7.54
381.041	25.54
381.17	-3.46
381.299	6.54
381.428	20.54
381.557	18.54
381.685	21.54
381.814	13.54
381.943	18.54
382.072	15.54
382.2	3.54
382.329	14.54
382.458	12.54
382.587	11.54
382.715	33.54
382.844	27.54
382.973	18.54
383.102	8.54
383.23	-0.46
383.359	6.54
383.488	11.54
383.616	10.54
383.745	0.54
383.874	12.54
384.003	24.54
384.131	-2.46
384.26	16.54
384.389	32.54
384.517	1.54
384.646	6.54
384.774	10.54
384.903	32.54
385.032	25.54
385.16	14.54
385.289	15.54
385.418	20.54
385.546	13.54
385.675	33.54
385.803	15.54
385.932	29.54
386.06	21.54
386.189	12.54
386.318	7.54
386.446	5.54
386.575	12.54
386.703	8.54
386.832	6.54
386.96	-10.46
387.089	20.54
387.217	23.54
387.346	6.54
387.474	29.54
387.603	22.54
387.731	33.54
387.86	39.54
387.988	18.54
388.117	32.54
388.245	26.54
388.374	30.54
388.502	27.54
388.631	-0.46
388.759	0.54
388.888	11.54
389.016	13.54
389.144	22.54
389.273	14.54
389.401	8.54
389.53	5.54
389.658	40.54
389.786	7.54
389.915	-1.46
390.043	8.54
390.172	6.54
390.3	41.54
390.428	17.54
390.557	25.54
390.685	51.54
390.813	51.54
390.942	31.54
391.07	31.54
391.198	32.54
391.327	5.54
391.455	4.54
391.583	29.54
391.712	36.54
391.84	31.54
391.968	10.54
392.096	16.54
392.225	8.54
392.353	16.54
392.481	21.54
392.609	44.54
392.738	39.54
392.866	37.54
392.994	1.54
393.122	32.54
393.251	27.54
393.379	28.54
393.507	-1.46
393.635	23.54
393.764	25.54
393.892	26.54
394.02	13.54
394.148	18.54
394.276	18.54
394.404	57.54
394.533	30.54
394.661	39.54
394.789	28.54
394.917	44.54
395.045	17.54
395.173	20.54
395.302	27.54
395.43	26.54
395.558	27.54
395.686	39.54
395.814	45.54
395.942	33.54
396.07	17.54
396.198	43.54
396.326	19.54
396.454	47.54
396.582	34.54
396.711	30.54
396.839	40.54
396.967	26.54
397.095	27.54
397.223	37.54
397.351	56.54
397.479	57.54
397.607	31.54
397.735	46.54
397.863	53.54
397.991	48.54
398.119	30.54
398.247	61.54
398.375	62.54
398.503	39.54
398.631	50.54
398.759	77.54
398.887	57.54
399.015	50.54
399.143	52.54
399.271	75.54
399.399	63.54
399.526	70.54
399.654	85.54
399.782	67.54
399.91	86.54
400.038	91.54
400.166	87.54
400.294	87.54
400.422	67.54
400.55	97.54
400.678	95.54
400.805	117.54
400.933	109.54
401.061	116.54
401.189	124.54
401.317	142.54
401.445	99.54
401.573	71.54
401.7	62.54
401.828	61.54
401.956	41.54
402.084	46.54
402.212	15.54
402.34	0.54
402.467	26.54
402.595	42.54
402.723	46.54
402.851	49.54
402.978	60.54
403.106	73.54
403.234	94.54
403.362	98.54
403.489	116.54
403.617	161.54
403.745	201.54
403.873	277.54
404	571.54
404.128	1449.54
404.256	3978.54
404.384	5190.54
404.511	5554.54
404.639	7318.54
404.767	11649.54
404.894	14748.54
405.022	4959.54
405.15	1337.54
405.277	430.54
405.405	250.54
405.533	115.54
405.66	114.54
405.788	61.54
405.916	67.54
406.043	34.54
406.171	62.54
406.299	49.54
406.426	84.54
406.554	53.54
406.681	62.54
406.809	43.54
406.937	68.54
407.064	83.54
407.192	151.54
407.319	307.54
407.447	522.54
407.574	566.54
407.702	647.54
407.83	855.54
407.957	1622.54
408.085	958.54
408.212	280.54
408.34	103.54
408.467	59.54
408.595	59.54
408.722	62.54
408.85	57.54
408.977	15.54
409.105	33.54
409.232	40.54
409.36	47.54
409.487	25.54
409.615	19.54
409.742	32.54
409.87	33.54
409.997	58.54
410.125	42.54
410.252	57.54
410.379	28.54
410.507	42.54
410.634	14.54
410.762	20.54
410.889	41.54
411.017	26.54
411.144	45.54
411.271	22.54
411.399	27.54
411.526	34.54
411.653	29.54
411.781	46.54
411.908	29.54
412.036	21.54
412.163	39.54
412.29	25.54
412.418	28.54
412.545	22.54
412.672	26.54
412.8	51.54
412.927	28.54
413.054	22.54
413.182	9.54
413.309	19.54
413.436	12.54
413.564	27.54
413.691	19.54
413.818	40.54
413.945	18.54
414.073	14.54
414.2	24.54
414.327	46.54
414.454	31.54
414.582	34.54
414.709	11.54
414.836	23.54
414.963	32.54
415.091	25.54
415.218	34.54
415.345	36.54
415.472	35.54
415.6	17.54
415.727	25.54
415.854	32.54
415.981	35.54
416.108	-0.46
416.236	32.54
416.363	36.54
416.49	18.54
416.617	26.54
416.744	41.54
416.871	14.54
416.998	8.54
417.126	18.54
417.253	17.54
417.38	28.54
417.507	32.54
417.634	36.54
417.761	42.54
417.888	62.54
418.015	25.54
418.143	29.54
418.27	58.54
418.397	41.54
418.524	45.54
418.651	26.54
418.778	55.54
418.905	66.54
