Data from LowRes_mercury_15_20_11_07_2024_HR4C61881__98__15-23-42-070.txt Node

Date: Thu Nov 07 15:23:42 EST 2024
User: crc00042
Spectrometer: HR4C6188
Trigger mode: 4
Integration Time (sec): 1.000000E-1
Scans to average: 1
Electric dark correction enabled: true
Nonlinearity correction enabled: false
Boxcar width: 0
XAxis mode: Wavelengths
Number of Pixels in Spectrum: 3648
>>>>>Begin Spectral Data<<<<<
245.66	-91.38
245.797	-91.38
245.934	-91.38
246.071	-63.38
246.208	8.62
246.344	5.62
246.481	-13.38
246.618	-1.38
246.755	9.62
246.892	5.62
247.029	0.62
247.165	-23.38
247.302	3.62
247.439	1.62
247.576	7.62
247.713	-5.38
247.849	21.62
247.986	-12.38
248.123	-1.38
248.26	-2.38
248.396	-11.38
248.533	-1.38
248.67	-3.38
248.806	2.62
248.943	-18.38
249.08	-23.38
249.216	-1.38
249.353	1.62
249.49	-8.38
249.626	-2.38
249.763	-25.38
249.9	-0.38
250.036	-3.38
250.173	-7.38
250.309	4.62
250.446	7.62
250.582	-3.38
250.719	-16.38
250.856	-7.38
250.992	-4.38
251.129	-9.38
251.265	-5.38
251.402	-12.38
251.538	-13.38
251.675	-0.38
251.811	20.62
251.948	14.62
252.084	1.62
252.221	2.62
252.357	14.62
252.493	22.62
252.63	-5.38
252.766	24.62
252.903	9.62
253.039	24.62
253.175	8.62
253.312	18.62
253.448	-14.38
253.585	-3.38
253.721	17.62
253.857	-13.38
253.994	-1.38
254.13	6.62
254.266	-1.38
254.403	1.62
254.539	-1.38
254.675	5.62
254.811	2.62
254.948	-2.38
255.084	-15.38
255.22	-19.38
255.356	-3.38
255.493	6.62
255.629	18.62
255.765	-11.38
255.901	17.62
256.037	10.62
256.174	7.62
256.31	-4.38
256.446	-1.38
256.582	10.62
256.718	22.62
256.854	22.62
256.991	21.62
257.127	16.62
257.263	4.62
257.399	9.62
257.535	-9.38
257.671	10.62
257.807	-1.38
257.943	-12.38
258.079	-1.38
258.215	-0.38
258.351	24.62
258.487	-13.38
258.623	5.62
258.759	4.62
258.895	16.62
259.031	2.62
259.167	-3.38
259.303	8.62
259.439	-2.38
259.575	-3.38
259.711	20.62
259.847	2.62
259.983	-2.38
260.119	-0.38
260.255	-9.38
260.391	-2.38
260.527	8.62
260.663	-1.38
260.799	11.62
260.934	8.62
261.07	0.62
261.206	-24.38
261.342	3.62
261.478	2.62
261.614	18.62
261.749	-2.38
261.885	-15.38
262.021	5.62
262.157	28.62
262.293	5.62
262.428	-2.38
262.564	-9.38
262.7	11.62
262.836	-2.38
262.971	17.62
263.107	11.62
263.243	-4.38
263.378	-3.38
263.514	-1.38
263.65	2.62
263.785	-10.38
263.921	-3.38
264.057	-15.38
264.192	-10.38
264.328	16.62
264.464	1.62
264.599	-0.38
264.735	22.62
264.871	-10.38
265.006	14.62
265.142	5.62
265.277	5.62
265.413	10.62
265.548	-3.38
265.684	29.62
265.819	0.62
265.955	-18.38
266.091	14.62
266.226	4.62
266.362	7.62
266.497	14.62
266.633	-14.38
266.768	-15.38
266.903	8.62
267.039	9.62
267.174	-2.38
267.31	-19.38
267.445	-7.38
267.581	-14.38
267.716	21.62
267.851	11.62
267.987	18.62
268.122	16.62
268.258	11.62
268.393	-2.38
268.528	-0.38
268.664	6.62
268.799	-14.38
268.934	7.62
269.07	-10.38
269.205	2.62
269.34	-0.38
269.476	12.62
269.611	-1.38
269.746	5.62
269.881	18.62
270.017	11.62
270.152	0.62
270.287	8.62
270.422	-4.38
270.558	-2.38
270.693	4.62
270.828	-11.38
270.963	-13.38
271.098	-1.38
271.234	-0.38
271.369	18.62
271.504	11.62
271.639	-0.38
271.774	-0.38
271.909	-5.38
272.045	-16.38
272.18	2.62
272.315	1.62
272.45	30.62
272.585	-7.38
272.72	0.62
272.855	-1.38
272.99	24.62
273.125	2.62
273.26	-7.38
273.395	-2.38
273.53	-8.38
273.665	20.62
273.8	0.62
273.935	-1.38
274.07	1.62
274.205	0.62
274.34	0.62
274.475	8.62
274.61	8.62
274.745	-5.38
274.88	13.62
275.015	8.62
275.15	11.62
275.285	4.62
275.42	4.62
275.555	18.62
275.69	15.62
275.825	-4.38
275.959	1.62
276.094	-2.38
276.229	7.62
276.364	-5.38
276.499	-13.38
276.634	-9.38
276.768	-9.38
276.903	9.62
277.038	14.62
277.173	19.62
277.308	16.62
277.442	-8.38
277.577	-21.38
277.712	17.62
277.847	-5.38
277.981	6.62
278.116	-18.38
278.251	5.62
278.386	-0.38
278.52	6.62
278.655	-9.38
278.79	15.62
278.924	7.62
279.059	-0.38
279.194	-10.38
279.328	42.62
279.463	31.62
279.598	35.62
279.732	26.62
279.867	22.62
280.001	0.62
280.136	-3.38
280.271	27.62
280.405	17.62
280.54	16.62
280.674	-5.38
280.809	15.62
280.943	18.62
281.078	11.62
281.213	13.62
281.347	7.62
281.482	5.62
281.616	10.62
281.751	0.62
281.885	-29.38
282.02	-2.38
282.154	8.62
282.288	5.62
282.423	10.62
282.557	7.62
282.692	-7.38
282.826	-8.38
282.961	10.62
283.095	5.62
283.229	-7.38
283.364	-13.38
283.498	-7.38
283.633	8.62
283.767	15.62
283.901	3.62
284.036	9.62
284.17	26.62
284.304	-4.38
284.439	-5.38
284.573	-3.38
284.707	3.62
284.842	6.62
284.976	0.62
285.11	-14.38
285.244	13.62
285.379	41.62
285.513	7.62
285.647	0.62
285.781	13.62
285.916	11.62
286.05	-1.38
286.184	21.62
286.318	-1.38
286.453	6.62
286.587	-16.38
286.721	-1.38
286.855	17.62
286.989	20.62
287.123	0.62
287.258	-4.38
287.392	-1.38
287.526	13.62
287.66	-0.38
287.794	5.62
287.928	-6.38
288.062	13.62
288.196	9.62
288.33	18.62
288.464	18.62
288.598	22.62
288.733	2.62
288.867	2.62
289.001	14.62
289.135	2.62
289.269	9.62
289.403	-2.38
289.537	8.62
289.671	5.62
289.805	16.62
289.939	23.62
290.073	8.62
290.207	6.62
290.34	1.62
290.474	7.62
290.608	17.62
290.742	2.62
290.876	17.62
291.01	-1.38
291.144	14.62
291.278	33.62
291.412	28.62
291.546	8.62
291.679	-3.38
291.813	-4.38
291.947	-7.38
292.081	17.62
292.215	11.62
292.349	16.62
292.482	-7.38
292.616	-2.38
292.75	-1.38
292.884	13.62
293.018	9.62
293.151	5.62
293.285	28.62
293.419	0.62
293.553	1.62
293.686	1.62
293.82	13.62
293.954	20.62
294.088	15.62
294.221	-2.38
294.355	-5.38
294.489	-3.38
294.622	-18.38
294.756	-11.38
294.89	-2.38
295.023	-0.38
295.157	11.62
295.291	1.62
295.424	4.62
295.558	8.62
295.691	2.62
295.825	-3.38
295.959	17.62
296.092	-27.38
296.226	-1.38
296.359	7.62
296.493	15.62
296.627	2.62
296.76	-9.38
296.894	-1.38
297.027	13.62
297.161	1.62
297.294	-29.38
297.428	0.62
297.561	10.62
297.695	5.62
297.828	-5.38
297.962	15.62
298.095	3.62
298.229	17.62
298.362	-9.38
298.495	-12.38
298.629	-16.38
298.762	19.62
298.896	2.62
299.029	2.62
299.162	14.62
299.296	7.62
299.429	0.62
299.563	16.62
299.696	-0.38
299.829	4.62
299.963	21.62
300.096	13.62
300.229	1.62
300.363	4.62
300.496	11.62
300.629	-15.38
300.763	-8.38
300.896	1.62
301.029	-6.38
301.162	5.62
301.296	-10.38
301.429	20.62
301.562	-14.38
301.695	4.62
301.829	25.62
301.962	28.62
302.095	12.62
302.228	-8.38
302.362	-3.38
302.495	-15.38
302.628	-7.38
302.761	10.62
302.894	9.62
303.027	18.62
303.161	-13.38
303.294	6.62
303.427	17.62
303.56	8.62
303.693	15.62
303.826	-2.38
303.959	2.62
304.092	-2.38
304.225	-12.38
304.359	12.62
304.492	23.62
304.625	-1.38
304.758	-2.38
304.891	-8.38
305.024	3.62
305.157	-7.38
305.29	-0.38
305.423	22.62
305.556	12.62
305.689	25.62
305.822	-7.38
305.955	-4.38
306.088	-1.38
306.221	-10.38
306.354	-1.38
306.487	0.62
306.62	7.62
306.752	8.62
306.885	0.62
307.018	6.62
307.151	8.62
307.284	6.62
307.417	-6.38
307.55	8.62
307.683	1.62
307.816	28.62
307.948	12.62
308.081	20.62
308.214	20.62
308.347	17.62
308.48	-9.38
308.613	-3.38
308.745	18.62
308.878	5.62
309.011	4.62
309.144	9.62
309.277	-0.38
309.409	15.62
309.542	-5.38
309.675	5.62
309.808	19.62
309.94	19.62
310.073	-3.38
310.206	-5.38
310.339	14.62
310.471	-10.38
310.604	21.62
310.737	1.62
310.869	2.62
311.002	8.62
311.135	-6.38
311.267	-21.38
311.4	5.62
311.533	21.62
311.665	-4.38
311.798	6.62
311.93	12.62
312.063	32.62
312.196	42.62
312.328	76.62
312.461	52.62
312.593	28.62
312.726	61.62
312.859	98.62
312.991	172.62
313.124	43.62
313.256	17.62
313.389	24.62
313.521	-6.38
313.654	-0.38
313.786	2.62
313.919	-11.38
314.051	-11.38
314.184	21.62
314.316	8.62
314.449	4.62
314.581	2.62
314.714	10.62
314.846	-4.38
314.978	-0.38
315.111	-1.38
315.243	15.62
315.376	6.62
315.508	12.62
315.641	-3.38
315.773	7.62
315.905	1.62
316.038	-4.38
316.17	1.62
316.302	4.62
316.435	5.62
316.567	-9.38
316.699	31.62
316.832	1.62
316.964	-8.38
317.096	5.62
317.229	16.62
317.361	-23.38
317.493	-6.38
317.625	-17.38
317.758	11.62
317.89	25.62
318.022	-7.38
318.155	-4.38
318.287	1.62
318.419	0.62
318.551	15.62
318.683	10.62
318.816	7.62
318.948	-3.38
319.08	1.62
319.212	-4.38
319.344	7.62
319.477	-10.38
319.609	10.62
319.741	11.62
319.873	-0.38
320.005	-2.38
320.137	-3.38
320.269	-11.38
320.401	0.62
320.534	10.62
320.666	-8.38
320.798	10.62
320.93	-4.38
321.062	-18.38
321.194	-7.38
321.326	12.62
321.458	1.62
321.59	11.62
321.722	-5.38
321.854	-3.38
321.986	-3.38
322.118	6.62
322.25	5.62
322.382	12.62
322.514	2.62
322.646	-5.38
322.778	17.62
322.91	-7.38
323.042	7.62
323.174	4.62
323.306	-4.38
323.438	-2.38
323.57	16.62
323.702	5.62
323.834	10.62
323.966	-1.38
324.097	0.62
324.229	11.62
324.361	-13.38
324.493	-18.38
324.625	-1.38
324.757	27.62
324.889	9.62
325.021	13.62
325.152	13.62
325.284	27.62
325.416	-1.38
325.548	26.62
325.68	4.62
325.811	20.62
325.943	5.62
326.075	-9.38
326.207	-1.38
326.339	14.62
326.47	5.62
326.602	8.62
326.734	12.62
326.866	25.62
326.997	-20.38
327.129	-9.38
327.261	-7.38
327.392	5.62
327.524	-18.38
327.656	-4.38
327.787	18.62
327.919	9.62
328.051	15.62
328.182	33.62
328.314	35.62
328.446	2.62
328.577	21.62
328.709	12.62
328.841	3.62
328.972	5.62
329.104	-2.38
329.235	-2.38
329.367	-8.38
329.499	-17.38
329.63	9.62
329.762	7.62
329.893	-3.38
330.025	-1.38
330.156	9.62
330.288	8.62
330.419	40.62
330.551	20.62
330.683	11.62
330.814	-1.38
330.946	14.62
331.077	-0.38
331.208	2.62
331.34	6.62
331.471	-2.38
331.603	-7.38
331.734	-2.38
331.866	14.62
331.997	9.62
332.129	15.62
332.26	-12.38
332.392	30.62
332.523	0.62
332.654	-10.38
332.786	15.62
332.917	10.62
333.048	23.62
333.18	13.62
333.311	-3.38
333.443	11.62
333.574	-0.38
333.705	51.62
333.837	40.62
333.968	127.62
334.099	247.62
334.231	206.62
334.362	56.62
334.493	18.62
334.624	21.62
334.756	32.62
334.887	29.62
335.018	12.62
335.15	28.62
335.281	16.62
335.412	21.62
335.543	10.62
335.675	11.62
335.806	8.62
335.937	14.62
336.068	7.62
336.199	39.62
336.331	-0.38
336.462	3.62
336.593	21.62
336.724	5.62
336.855	21.62
336.986	19.62
337.118	22.62
337.249	12.62
337.38	27.62
337.511	13.62
337.642	16.62
337.773	2.62
337.904	14.62
338.035	7.62
338.166	6.62
338.298	25.62
338.429	13.62
338.56	17.62
338.691	21.62
338.822	9.62
338.953	17.62
339.084	26.62
339.215	25.62
339.346	1.62
339.477	1.62
339.608	8.62
339.739	10.62
339.87	2.62
340.001	-3.38
340.132	31.62
340.263	18.62
340.394	8.62
340.525	22.62
340.656	13.62
340.787	24.62
340.918	29.62
341.049	16.62
341.179	-1.38
341.31	-0.38
341.441	11.62
341.572	17.62
341.703	14.62
341.834	16.62
341.965	20.62
342.096	0.62
342.227	12.62
342.357	22.62
342.488	5.62
342.619	21.62
342.75	9.62
342.881	6.62
343.012	41.62
343.142	38.62
343.273	7.62
343.404	21.62
343.535	35.62
343.666	20.62
343.796	42.62
343.927	21.62
344.058	43.62
344.189	37.62
344.319	30.62
344.45	11.62
344.581	37.62
344.712	20.62
344.842	38.62
344.973	17.62
345.104	36.62
345.234	31.62
345.365	9.62
345.496	18.62
345.626	29.62
345.757	26.62
345.888	26.62
346.018	12.62
346.149	35.62
346.28	55.62
346.41	17.62
346.541	34.62
346.672	24.62
346.802	33.62
346.933	21.62
347.063	25.62
347.194	38.62
347.325	34.62
347.455	42.62
347.586	15.62
347.716	30.62
347.847	42.62
347.977	28.62
348.108	27.62
348.238	47.62
348.369	38.62
348.499	27.62
348.63	43.62
348.76	39.62
348.891	39.62
349.021	56.62
349.152	48.62
349.282	47.62
349.413	29.62
349.543	34.62
349.674	40.62
349.804	45.62
349.935	23.62
350.065	32.62
350.196	42.62
350.326	43.62
350.456	27.62
350.587	40.62
350.717	25.62
350.848	25.62
350.978	32.62
351.108	31.62
351.239	26.62
351.369	23.62
351.499	28.62
351.63	37.62
351.76	39.62
351.89	31.62
352.021	31.62
352.151	27.62
352.281	28.62
352.412	32.62
352.542	22.62
352.672	22.62
352.803	30.62
352.933	14.62
353.063	40.62
353.193	24.62
353.324	34.62
353.454	17.62
353.584	41.62
353.714	23.62
353.845	19.62
353.975	0.62
354.105	11.62
354.235	32.62
354.365	7.62
354.496	14.62
354.626	36.62
354.756	32.62
354.886	17.62
355.016	26.62
355.146	17.62
355.277	13.62
355.407	16.62
355.537	21.62
355.667	21.62
355.797	11.62
355.927	32.62
356.057	20.62
356.187	16.62
356.318	14.62
356.448	26.62
356.578	22.62
356.708	44.62
356.838	36.62
356.968	22.62
357.098	32.62
357.228	39.62
357.358	19.62
357.488	39.62
357.618	62.62
357.748	33.62
357.878	22.62
358.008	13.62
358.138	23.62
358.268	32.62
358.398	39.62
358.528	13.62
358.658	27.62
358.788	27.62
358.918	33.62
359.048	22.62
359.178	37.62
359.308	29.62
359.438	36.62
359.568	24.62
359.698	20.62
359.827	20.62
359.957	3.62
360.087	26.62
360.217	44.62
360.347	27.62
360.477	57.62
360.607	18.62
360.737	42.62
360.866	20.62
360.996	19.62
361.126	39.62
361.256	50.62
361.386	31.62
361.516	49.62
361.645	22.62
361.775	41.62
361.905	3.62
362.035	39.62
362.165	28.62
362.294	37.62
362.424	37.62
362.554	48.62
362.684	36.62
362.813	44.62
362.943	49.62
363.073	50.62
363.203	70.62
363.332	69.62
363.462	82.62
363.592	101.62
363.721	113.62
363.851	164.62
363.981	201.62
364.111	255.62
364.24	330.62
364.37	475.62
364.5	861.62
364.629	1794.62
364.759	3823.62
364.888	6302.62
365.018	9281.62
365.148	14798.62
365.277	12851.62
365.407	4710.62
365.537	3102.62
365.666	4037.62
365.796	1790.62
365.925	789.62
366.055	774.62
366.184	1019.62
366.314	1395.62
366.444	2480.62
366.573	2082.62
366.703	626.62
366.832	210.62
366.962	122.62
367.091	86.62
367.221	59.62
367.35	66.62
367.48	87.62
367.609	52.62
367.739	56.62
367.868	39.62
367.998	46.62
368.127	42.62
368.257	71.62
368.386	47.62
368.516	61.62
368.645	21.62
368.775	52.62
368.904	34.62
369.033	28.62
369.163	11.62
369.292	45.62
369.422	49.62
369.551	50.62
369.68	42.62
369.81	51.62
369.939	32.62
370.069	60.62
370.198	37.62
370.327	31.62
370.457	32.62
370.586	56.62
370.715	30.62
370.845	21.62
370.974	39.62
371.103	70.62
371.233	50.62
371.362	41.62
371.491	31.62
371.621	36.62
371.75	54.62
371.879	40.62
372.008	44.62
372.138	54.62
372.267	50.62
372.396	54.62
372.525	44.62
372.655	35.62
372.784	24.62
372.913	18.62
373.042	38.62
373.172	43.62
373.301	5.62
373.43	-15.38
373.559	21.62
373.688	36.62
373.818	28.62
373.947	46.62
374.076	21.62
374.205	22.62
374.334	31.62
374.463	15.62
374.593	19.62
374.722	33.62
374.851	46.62
374.98	26.62
375.109	16.62
375.238	31.62
375.367	22.62
375.496	-3.38
375.625	11.62
375.755	36.62
375.884	44.62
376.013	46.62
376.142	18.62
376.271	14.62
376.4	14.62
376.529	35.62
376.658	25.62
376.787	30.62
376.916	45.62
377.045	13.62
377.174	10.62
377.303	15.62
377.432	33.62
377.561	30.62
377.69	24.62
377.819	36.62
377.948	20.62
378.077	11.62
378.206	-3.38
378.335	2.62
378.464	19.62
378.593	41.62
378.722	1.62
378.851	-6.38
378.98	16.62
379.108	-3.38
379.237	1.62
379.366	20.62
379.495	39.62
379.624	30.62
379.753	24.62
379.882	21.62
380.011	14.62
380.14	26.62
380.268	27.62
380.397	4.62
380.526	41.62
380.655	-4.38
380.784	5.62
380.913	23.62
381.041	13.62
381.17	9.62
381.299	-1.38
381.428	28.62
381.557	20.62
381.685	14.62
381.814	16.62
381.943	11.62
382.072	9.62
382.2	4.62
382.329	14.62
382.458	12.62
382.587	23.62
382.715	19.62
382.844	29.62
382.973	22.62
383.102	-8.38
383.23	13.62
383.359	-15.38
383.488	32.62
383.616	14.62
383.745	-10.38
383.874	8.62
384.003	-3.38
384.131	8.62
384.26	16.62
384.389	28.62
384.517	27.62
384.646	18.62
384.774	21.62
384.903	29.62
385.032	26.62
385.16	23.62
385.289	26.62
385.418	13.62
385.546	17.62
385.675	37.62
385.803	40.62
385.932	34.62
386.06	14.62
386.189	12.62
386.318	39.62
386.446	29.62
386.575	34.62
386.703	36.62
386.832	-0.38
386.96	14.62
387.089	52.62
387.217	9.62
387.346	-5.38
387.474	24.62
387.603	27.62
387.731	24.62
387.86	33.62
387.988	17.62
388.117	22.62
388.245	24.62
388.374	18.62
388.502	42.62
388.631	9.62
388.759	13.62
388.888	17.62
389.016	19.62
389.144	10.62
389.273	21.62
389.401	13.62
389.53	17.62
389.658	27.62
389.786	18.62
389.915	13.62
390.043	27.62
390.172	19.62
390.3	33.62
390.428	27.62
390.557	24.62
390.685	45.62
390.813	44.62
390.942	41.62
391.07	2.62
391.198	8.62
391.327	5.62
391.455	13.62
391.583	38.62
391.712	24.62
391.84	28.62
391.968	17.62
392.096	29.62
392.225	9.62
392.353	20.62
392.481	24.62
392.609	45.62
392.738	30.62
392.866	41.62
392.994	16.62
393.122	35.62
393.251	15.62
393.379	29.62
393.507	-0.38
393.635	30.62
393.764	45.62
393.892	35.62
394.02	15.62
394.148	20.62
394.276	42.62
394.404	47.62
394.533	19.62
394.661	33.62
394.789	14.62
394.917	36.62
395.045	27.62
395.173	21.62
395.302	29.62
395.43	31.62
395.558	42.62
395.686	32.62
395.814	32.62
395.942	22.62
396.07	33.62
396.198	14.62
396.326	33.62
396.454	40.62
396.582	34.62
396.711	18.62
396.839	37.62
396.967	34.62
397.095	21.62
397.223	33.62
397.351	50.62
397.479	43.62
397.607	41.62
397.735	43.62
397.863	48.62
397.991	58.62
398.119	29.62
398.247	43.62
398.375	49.62
398.503	45.62
398.631	56.62
398.759	71.62
398.887	47.62
399.015	59.62
399.143	52.62
399.271	57.62
399.399	64.62
399.526	83.62
399.654	76.62
399.782	58.62
399.91	96.62
400.038	106.62
400.166	82.62
400.294	89.62
400.422	84.62
400.55	102.62
400.678	76.62
400.805	100.62
400.933	98.62
401.061	106.62
401.189	116.62
401.317	138.62
401.445	108.62
401.573	94.62
401.7	54.62
401.828	46.62
401.956	63.62
402.084	57.62
402.212	41.62
402.34	48.62
402.467	35.62
402.595	33.62
402.723	40.62
402.851	63.62
402.978	46.62
403.106	89.62
403.234	98.62
403.362	114.62
403.489	117.62
403.617	146.62
403.745	189.62
403.873	277.62
404	571.62
404.128	1485.62
404.256	3884.62
404.384	5084.62
404.511	5499.62
404.639	7166.62
404.767	11444.62
404.894	14630.62
405.022	4889.62
405.15	1316.62
405.277	428.62
405.405	215.62
405.533	129.62
405.66	114.62
405.788	51.62
405.916	81.62
406.043	60.62
406.171	57.62
406.299	50.62
406.426	52.62
406.554	51.62
406.681	49.62
406.809	45.62
406.937	58.62
407.064	57.62
407.192	124.62
407.319	286.62
407.447	527.62
407.574	560.62
407.702	628.62
407.83	848.62
407.957	1593.62
408.085	945.62
408.212	277.62
408.34	113.62
408.467	57.62
408.595	42.62
408.722	62.62
408.85	38.62
408.977	39.62
409.105	33.62
409.232	45.62
409.36	13.62
409.487	29.62
409.615	19.62
409.742	30.62
409.87	25.62
409.997	45.62
410.125	41.62
410.252	48.62
410.379	29.62
410.507	38.62
410.634	16.62
410.762	16.62
410.889	50.62
411.017	44.62
411.144	38.62
411.271	26.62
411.399	42.62
411.526	34.62
411.653	34.62
411.781	47.62
411.908	16.62
412.036	21.62
412.163	31.62
412.29	39.62
412.418	17.62
412.545	36.62
412.672	30.62
412.8	50.62
412.927	43.62
413.054	46.62
413.182	39.62
413.309	34.62
413.436	20.62
413.564	21.62
413.691	16.62
413.818	36.62
413.945	-1.38
414.073	19.62
414.2	30.62
414.327	25.62
414.454	37.62
414.582	30.62
414.709	20.62
414.836	17.62
414.963	33.62
415.091	22.62
415.218	26.62
415.345	20.62
415.472	24.62
415.6	11.62
415.727	22.62
415.854	34.62
415.981	18.62
416.108	23.62
416.236	33.62
416.363	49.62
416.49	24.62
416.617	32.62
416.744	21.62
416.871	37.62
416.998	23.62
417.126	19.62
417.253	40.62
417.38	51.62
417.507	29.62
417.634	52.62
417.761	28.62
417.888	33.62
418.015	38.62
418.143	41.62
418.27	53.62
418.397	9.62
418.524	22.62
418.651	30.62
418.778	37.62
418.905	47.62
419.032	43.62
