Data from LowRes_mercury_15_20_11_07_2024_HR4C61881__49__15-23-37-171.txt Node

Date: Thu Nov 07 15:23:37 EST 2024
User: crc00042
Spectrometer: HR4C6188
Trigger mode: 4
Integration Time (sec): 1.000000E-1
Scans to average: 1
Electric dark correction enabled: true
Nonlinearity correction enabled: false
Boxcar width: 0
XAxis mode: Wavelengths
Number of Pixels in Spectrum: 3648
>>>>>Begin Spectral Data<<<<<
245.66	-80.08
245.797	-80.08
245.934	-80.08
246.071	-69.08
246.208	-2.08
246.344	5.92
246.481	-9.08
246.618	-0.08
246.755	0.92
246.892	-3.08
247.029	3.92
247.165	-7.08
247.302	-6.08
247.439	2.92
247.576	15.92
247.713	-14.08
247.849	15.92
247.986	-6.08
248.123	0.92
248.26	-9.08
248.396	24.92
248.533	-0.08
248.67	-8.08
248.806	9.92
248.943	-14.08
249.08	-16.08
249.216	13.92
249.353	-10.08
249.49	-8.08
249.626	-6.08
249.763	-5.08
249.9	-1.08
250.036	-0.08
250.173	13.92
250.309	11.92
250.446	0.92
250.582	-7.08
250.719	-7.08
250.856	1.92
250.992	-12.08
251.129	-16.08
251.265	-7.08
251.402	-16.08
251.538	-6.08
251.675	8.92
251.811	15.92
251.948	33.92
252.084	-2.08
252.221	3.92
252.357	-17.08
252.493	6.92
252.63	-6.08
252.766	17.92
252.903	5.92
253.039	7.92
253.175	-10.08
253.312	10.92
253.448	-13.08
253.585	-23.08
253.721	1.92
253.857	-17.08
253.994	-5.08
254.13	1.92
254.266	22.92
254.403	-2.08
254.539	-9.08
254.675	-5.08
254.811	3.92
254.948	-3.08
255.084	-8.08
255.22	-33.08
255.356	0.92
255.493	-8.08
255.629	4.92
255.765	3.92
255.901	23.92
256.037	-12.08
256.174	-11.08
256.31	4.92
256.446	-18.08
256.582	-7.08
256.718	5.92
256.854	5.92
256.991	5.92
257.127	17.92
257.263	-11.08
257.399	2.92
257.535	-2.08
257.671	-0.08
257.807	-1.08
257.943	-9.08
258.079	-10.08
258.215	-5.08
258.351	6.92
258.487	9.92
258.623	12.92
258.759	1.92
258.895	-4.08
259.031	12.92
259.167	-16.08
259.303	-1.08
259.439	-5.08
259.575	5.92
259.711	3.92
259.847	-17.08
259.983	4.92
260.119	-9.08
260.255	5.92
260.391	5.92
260.527	3.92
260.663	7.92
260.799	6.92
260.934	4.92
261.07	-10.08
261.206	-32.08
261.342	-19.08
261.478	-5.08
261.614	-1.08
261.749	-11.08
261.885	4.92
262.021	18.92
262.157	15.92
262.293	-1.08
262.428	4.92
262.564	13.92
262.7	-7.08
262.836	-9.08
262.971	5.92
263.107	9.92
263.243	26.92
263.378	3.92
263.514	-22.08
263.65	3.92
263.785	-7.08
263.921	2.92
264.057	10.92
264.192	-6.08
264.328	8.92
264.464	-5.08
264.599	6.92
264.735	22.92
264.871	-6.08
265.006	-1.08
265.142	4.92
265.277	-0.08
265.413	9.92
265.548	19.92
265.684	13.92
265.819	-8.08
265.955	-20.08
266.091	-11.08
266.226	-17.08
266.362	15.92
266.497	-1.08
266.633	-3.08
266.768	-8.08
266.903	2.92
267.039	-9.08
267.174	25.92
267.31	-19.08
267.445	-11.08
267.581	-0.08
267.716	19.92
267.851	-8.08
267.987	3.92
268.122	14.92
268.258	-0.08
268.393	5.92
268.528	4.92
268.664	-1.08
268.799	-17.08
268.934	12.92
269.07	-0.08
269.205	1.92
269.34	8.92
269.476	-2.08
269.611	-4.08
269.746	4.92
269.881	14.92
270.017	32.92
270.152	2.92
270.287	5.92
270.422	9.92
270.558	-5.08
270.693	6.92
270.828	7.92
270.963	5.92
271.098	-23.08
271.234	-11.08
271.369	14.92
271.504	3.92
271.639	-4.08
271.774	-15.08
271.909	-5.08
272.045	-24.08
272.18	-7.08
272.315	1.92
272.45	-6.08
272.585	-8.08
272.72	-1.08
272.855	-2.08
272.99	5.92
273.125	-21.08
273.26	-33.08
273.395	-8.08
273.53	0.92
273.665	9.92
273.8	8.92
273.935	13.92
274.07	10.92
274.205	-7.08
274.34	-26.08
274.475	-9.08
274.61	21.92
274.745	-15.08
274.88	6.92
275.015	-7.08
275.15	-0.08
275.285	21.92
275.42	-9.08
275.555	17.92
275.69	18.92
275.825	2.92
275.959	31.92
276.094	-9.08
276.229	-22.08
276.364	11.92
276.499	-0.08
276.634	-5.08
276.768	-7.08
276.903	11.92
277.038	7.92
277.173	-4.08
277.308	-20.08
277.442	-9.08
277.577	-3.08
277.712	-1.08
277.847	-6.08
277.981	2.92
278.116	-21.08
278.251	2.92
278.386	7.92
278.52	13.92
278.655	-2.08
278.79	23.92
278.924	-25.08
279.059	3.92
279.194	-26.08
279.328	12.92
279.463	-14.08
279.598	19.92
279.732	10.92
279.867	22.92
280.001	11.92
280.136	-7.08
280.271	-1.08
280.405	3.92
280.54	-4.08
280.674	-7.08
280.809	24.92
280.943	14.92
281.078	-0.08
281.213	17.92
281.347	13.92
281.482	12.92
281.616	8.92
281.751	-0.08
281.885	-10.08
282.02	12.92
282.154	-0.08
282.288	-9.08
282.423	-0.08
282.557	-19.08
282.692	3.92
282.826	0.92
282.961	-7.08
283.095	2.92
283.229	-0.08
283.364	-20.08
283.498	-10.08
283.633	12.92
283.767	18.92
283.901	5.92
284.036	25.92
284.17	1.92
284.304	7.92
284.439	21.92
284.573	-2.08
284.707	20.92
284.842	-7.08
284.976	-19.08
285.11	2.92
285.244	6.92
285.379	42.92
285.513	7.92
285.647	4.92
285.781	6.92
285.916	16.92
286.05	-5.08
286.184	9.92
286.318	2.92
286.453	-12.08
286.587	6.92
286.721	-18.08
286.855	6.92
286.989	26.92
287.123	3.92
287.258	-4.08
287.392	-12.08
287.526	-1.08
287.66	6.92
287.794	-1.08
287.928	-7.08
288.062	9.92
288.196	-4.08
288.33	8.92
288.464	30.92
288.598	18.92
288.733	18.92
288.867	24.92
289.001	6.92
289.135	-0.08
289.269	-0.08
289.403	-6.08
289.537	2.92
289.671	-0.08
289.805	-9.08
289.939	7.92
290.073	5.92
290.207	3.92
290.34	-21.08
290.474	0.92
290.608	-8.08
290.742	-14.08
290.876	-0.08
291.01	0.92
291.144	17.92
291.278	19.92
291.412	2.92
291.546	5.92
291.679	12.92
291.813	-1.08
291.947	-4.08
292.081	-6.08
292.215	13.92
292.349	11.92
292.482	12.92
292.616	3.92
292.75	17.92
292.884	11.92
293.018	-5.08
293.151	-21.08
293.285	-0.08
293.419	-15.08
293.553	-9.08
293.686	-16.08
293.82	10.92
293.954	15.92
294.088	27.92
294.221	9.92
294.355	-13.08
294.489	3.92
294.622	-1.08
294.756	15.92
294.89	8.92
295.023	11.92
295.157	18.92
295.291	20.92
295.424	26.92
295.558	3.92
295.691	-10.08
295.825	3.92
295.959	-1.08
296.092	16.92
296.226	14.92
296.359	-1.08
296.493	14.92
296.627	5.92
296.76	-4.08
296.894	-8.08
297.027	-1.08
297.161	-17.08
297.294	-9.08
297.428	-4.08
297.561	2.92
297.695	-12.08
297.828	15.92
297.962	-4.08
298.095	-8.08
298.229	2.92
298.362	-21.08
298.495	-17.08
298.629	3.92
298.762	6.92
298.896	-9.08
299.029	-18.08
299.162	-17.08
299.296	-13.08
299.429	-2.08
299.563	-8.08
299.696	25.92
299.829	12.92
299.963	22.92
300.096	-3.08
300.229	-6.08
300.363	4.92
300.496	1.92
300.629	-21.08
300.763	-22.08
300.896	-5.08
301.029	9.92
301.162	0.92
301.296	-9.08
301.429	7.92
301.562	-15.08
301.695	12.92
301.829	10.92
301.962	17.92
302.095	5.92
302.228	-3.08
302.362	8.92
302.495	-3.08
302.628	-8.08
302.761	-4.08
302.894	6.92
303.027	21.92
303.161	-13.08
303.294	-13.08
303.427	16.92
303.56	2.92
303.693	11.92
303.826	-1.08
303.959	12.92
304.092	11.92
304.225	7.92
304.359	-22.08
304.492	-0.08
304.625	0.92
304.758	11.92
304.891	-19.08
305.024	0.92
305.157	-24.08
305.29	-17.08
305.423	2.92
305.556	4.92
305.689	18.92
305.822	1.92
305.955	14.92
306.088	-4.08
306.221	-0.08
306.354	-9.08
306.487	-0.08
306.62	-12.08
306.752	-14.08
306.885	5.92
307.018	3.92
307.151	10.92
307.284	12.92
307.417	-16.08
307.55	-3.08
307.683	5.92
307.816	7.92
307.948	9.92
308.081	21.92
308.214	4.92
308.347	21.92
308.48	-12.08
308.613	-21.08
308.745	0.92
308.878	-1.08
309.011	-4.08
309.144	10.92
309.277	2.92
309.409	17.92
309.542	11.92
309.675	7.92
309.808	-2.08
309.94	23.92
310.073	-3.08
310.206	-6.08
310.339	7.92
310.471	-28.08
310.604	-0.08
310.737	9.92
310.869	-8.08
311.002	-5.08
311.135	3.92
311.267	-11.08
311.4	9.92
311.533	2.92
311.665	-8.08
311.798	-9.08
311.93	15.92
312.063	26.92
312.196	43.92
312.328	71.92
312.461	58.92
312.593	30.92
312.726	38.92
312.859	98.92
312.991	161.92
313.124	60.92
313.256	15.92
313.389	11.92
313.521	6.92
313.654	-1.08
313.786	-17.08
313.919	-13.08
314.051	9.92
314.184	2.92
314.316	-11.08
314.449	-4.08
314.581	-10.08
314.714	-6.08
314.846	1.92
314.978	-13.08
315.111	-8.08
315.243	19.92
315.376	17.92
315.508	-1.08
315.641	1.92
315.773	19.92
315.905	8.92
316.038	6.92
316.17	5.92
316.302	-1.08
316.435	-12.08
316.567	12.92
316.699	13.92
316.832	-13.08
316.964	1.92
317.096	-13.08
317.229	-22.08
317.361	-20.08
317.493	-11.08
317.625	-13.08
317.758	3.92
317.89	-1.08
318.022	1.92
318.155	-17.08
318.287	11.92
318.419	2.92
318.551	-1.08
318.683	-12.08
318.816	-4.08
318.948	15.92
319.08	-2.08
319.212	4.92
319.344	19.92
319.477	5.92
319.609	32.92
319.741	8.92
319.873	0.92
320.005	-14.08
320.137	28.92
320.269	-3.08
320.401	-6.08
320.534	4.92
320.666	-30.08
320.798	-9.08
320.93	-15.08
321.062	-1.08
321.194	-18.08
321.326	13.92
321.458	15.92
321.59	6.92
321.722	-8.08
321.854	-13.08
321.986	-4.08
322.118	-7.08
322.25	-9.08
322.382	-2.08
322.514	-1.08
322.646	-15.08
322.778	5.92
322.91	2.92
323.042	5.92
323.174	-3.08
323.306	-3.08
323.438	-24.08
323.57	5.92
323.702	9.92
323.834	2.92
323.966	-23.08
324.097	2.92
324.229	15.92
324.361	11.92
324.493	15.92
324.625	3.92
324.757	-2.08
324.889	4.92
325.021	17.92
325.152	25.92
325.284	31.92
325.416	-3.08
325.548	22.92
325.68	5.92
325.811	15.92
325.943	-3.08
326.075	-21.08
326.207	2.92
326.339	27.92
326.47	7.92
326.602	12.92
326.734	15.92
326.866	28.92
326.997	-6.08
327.129	-14.08
327.261	-36.08
327.392	-10.08
327.524	1.92
327.656	8.92
327.787	5.92
327.919	5.92
328.051	8.92
328.182	21.92
328.314	14.92
328.446	-8.08
328.577	-2.08
328.709	12.92
328.841	5.92
328.972	2.92
329.104	4.92
329.235	9.92
329.367	-0.08
329.499	-6.08
329.63	9.92
329.762	9.92
329.893	25.92
330.025	4.92
330.156	1.92
330.288	10.92
330.419	-2.08
330.551	11.92
330.683	19.92
330.814	5.92
330.946	11.92
331.077	-11.08
331.208	-6.08
331.34	3.92
331.471	-21.08
331.603	-5.08
331.734	5.92
331.866	-6.08
331.997	0.92
332.129	-3.08
332.26	-4.08
332.392	27.92
332.523	7.92
332.654	-20.08
332.786	2.92
332.917	-0.08
333.048	13.92
333.18	18.92
333.311	2.92
333.443	5.92
333.574	2.92
333.705	15.92
333.837	36.92
333.968	126.92
334.099	234.92
334.231	197.92
334.362	55.92
334.493	35.92
334.624	18.92
334.756	7.92
334.887	12.92
335.018	9.92
335.15	-2.08
335.281	9.92
335.412	34.92
335.543	16.92
335.675	27.92
335.806	-1.08
335.937	-18.08
336.068	-1.08
336.199	21.92
336.331	6.92
336.462	21.92
336.593	14.92
336.724	-15.08
336.855	-2.08
336.986	9.92
337.118	6.92
337.249	3.92
337.38	0.92
337.511	-1.08
337.642	2.92
337.773	13.92
337.904	13.92
338.035	10.92
338.166	-0.08
338.298	11.92
338.429	-8.08
338.56	18.92
338.691	24.92
338.822	9.92
338.953	15.92
339.084	17.92
339.215	36.92
339.346	20.92
339.477	7.92
339.608	5.92
339.739	9.92
339.87	5.92
340.001	3.92
340.132	14.92
340.263	12.92
340.394	20.92
340.525	12.92
340.656	9.92
340.787	-10.08
340.918	25.92
341.049	18.92
341.179	13.92
341.31	17.92
341.441	21.92
341.572	12.92
341.703	8.92
341.834	7.92
341.965	12.92
342.096	-12.08
342.227	12.92
342.357	5.92
342.488	5.92
342.619	8.92
342.75	15.92
342.881	8.92
343.012	39.92
343.142	37.92
343.273	-8.08
343.404	10.92
343.535	42.92
343.666	37.92
343.796	31.92
343.927	28.92
344.058	28.92
344.189	28.92
344.319	23.92
344.45	34.92
344.581	2.92
344.712	12.92
344.842	27.92
344.973	5.92
345.104	8.92
345.234	24.92
345.365	0.92
345.496	13.92
345.626	41.92
345.757	29.92
345.888	15.92
346.018	33.92
346.149	17.92
346.28	50.92
346.41	11.92
346.541	28.92
346.672	35.92
346.802	29.92
346.933	32.92
347.063	9.92
347.194	19.92
347.325	14.92
347.455	41.92
347.586	41.92
347.716	0.92
347.847	35.92
347.977	33.92
348.108	55.92
348.238	66.92
348.369	21.92
348.499	48.92
348.63	29.92
348.76	48.92
348.891	55.92
349.021	56.92
349.152	40.92
349.282	51.92
349.413	45.92
349.543	49.92
349.674	17.92
349.804	41.92
349.935	11.92
350.065	16.92
350.196	24.92
350.326	36.92
350.456	26.92
350.587	30.92
350.717	16.92
350.848	40.92
350.978	21.92
351.108	13.92
351.239	36.92
351.369	11.92
351.499	24.92
351.63	38.92
351.76	16.92
351.89	20.92
352.021	20.92
352.151	-3.08
352.281	47.92
352.412	25.92
352.542	27.92
352.672	22.92
352.803	8.92
352.933	7.92
353.063	11.92
353.193	17.92
353.324	1.92
353.454	16.92
353.584	44.92
353.714	15.92
353.845	21.92
353.975	7.92
354.105	19.92
354.235	32.92
354.365	31.92
354.496	7.92
354.626	36.92
354.756	41.92
354.886	17.92
355.016	16.92
355.146	11.92
355.277	7.92
355.407	12.92
355.537	34.92
355.667	38.92
355.797	33.92
355.927	8.92
356.057	22.92
356.187	-3.08
356.318	15.92
356.448	32.92
356.578	25.92
356.708	30.92
356.838	23.92
356.968	15.92
357.098	23.92
357.228	20.92
357.358	22.92
357.488	25.92
357.618	60.92
357.748	31.92
357.878	26.92
358.008	20.92
358.138	5.92
358.268	5.92
358.398	37.92
358.528	2.92
358.658	23.92
358.788	22.92
358.918	17.92
359.048	26.92
359.178	23.92
359.308	34.92
359.438	28.92
359.568	23.92
359.698	34.92
359.827	17.92
359.957	18.92
360.087	35.92
360.217	15.92
360.347	26.92
360.477	44.92
360.607	8.92
360.737	40.92
360.866	20.92
360.996	13.92
361.126	13.92
361.256	49.92
361.386	43.92
361.516	37.92
361.645	16.92
361.775	43.92
361.905	30.92
362.035	41.92
362.165	27.92
362.294	41.92
362.424	57.92
362.554	60.92
362.684	25.92
362.813	20.92
362.943	48.92
363.073	55.92
363.203	66.92
363.332	72.92
363.462	86.92
363.592	114.92
363.721	117.92
363.851	141.92
363.981	186.92
364.111	245.92
364.24	303.92
364.37	468.92
364.5	829.92
364.629	1758.92
364.759	3777.92
364.888	6234.92
365.018	9306.92
365.148	14747.92
365.277	12776.92
365.407	4688.92
365.537	3079.92
365.666	3957.92
365.796	1800.92
365.925	788.92
366.055	735.92
366.184	1015.92
366.314	1358.92
366.444	2449.92
366.573	2088.92
366.703	664.92
366.832	211.92
366.962	111.92
367.091	92.92
367.221	74.92
367.35	40.92
367.48	61.92
367.609	52.92
367.739	46.92
367.868	20.92
367.998	51.92
368.127	67.92
368.257	57.92
368.386	61.92
368.516	67.92
368.645	25.92
368.775	53.92
368.904	39.92
369.033	9.92
369.163	21.92
369.292	33.92
369.422	53.92
369.551	60.92
369.68	33.92
369.81	41.92
369.939	29.92
370.069	47.92
370.198	30.92
370.327	25.92
370.457	27.92
370.586	47.92
370.715	35.92
370.845	31.92
370.974	40.92
371.103	62.92
371.233	53.92
371.362	53.92
371.491	45.92
371.621	59.92
371.75	52.92
371.879	41.92
372.008	25.92
372.138	47.92
372.267	61.92
372.396	67.92
372.525	37.92
372.655	21.92
372.784	17.92
372.913	21.92
373.042	31.92
373.172	35.92
373.301	7.92
373.43	7.92
373.559	18.92
373.688	43.92
373.818	23.92
373.947	11.92
374.076	10.92
374.205	9.92
374.334	6.92
374.463	17.92
374.593	31.92
374.722	14.92
374.851	14.92
374.98	11.92
375.109	14.92
375.238	36.92
375.367	38.92
375.496	-5.08
375.625	2.92
375.755	28.92
375.884	28.92
376.013	25.92
376.142	-6.08
376.271	19.92
376.4	20.92
376.529	37.92
376.658	42.92
376.787	29.92
376.916	15.92
377.045	20.92
377.174	13.92
377.303	36.92
377.432	40.92
377.561	18.92
377.69	5.92
377.819	38.92
377.948	18.92
378.077	19.92
378.206	16.92
378.335	28.92
378.464	16.92
378.593	39.92
378.722	14.92
378.851	13.92
378.98	11.92
379.108	3.92
379.237	19.92
379.366	9.92
379.495	14.92
379.624	29.92
379.753	6.92
379.882	23.92
380.011	-13.08
380.14	6.92
380.268	30.92
380.397	8.92
380.526	34.92
380.655	7.92
380.784	-9.08
380.913	11.92
381.041	11.92
381.17	-13.08
381.299	1.92
381.428	28.92
381.557	22.92
381.685	14.92
381.814	27.92
381.943	-0.08
382.072	7.92
382.2	16.92
382.329	3.92
382.458	12.92
382.587	8.92
382.715	23.92
382.844	31.92
382.973	22.92
383.102	15.92
383.23	-1.08
383.359	2.92
383.488	12.92
383.616	1.92
383.745	-1.08
383.874	13.92
384.003	14.92
384.131	3.92
384.26	7.92
384.389	34.92
384.517	15.92
384.646	16.92
384.774	36.92
384.903	30.92
385.032	25.92
385.16	19.92
385.289	9.92
385.418	6.92
385.546	22.92
385.675	28.92
385.803	8.92
385.932	22.92
386.06	-6.08
386.189	17.92
386.318	35.92
386.446	20.92
386.575	37.92
386.703	24.92
386.832	17.92
386.96	2.92
387.089	18.92
387.217	21.92
387.346	-0.08
387.474	14.92
387.603	19.92
387.731	19.92
387.86	27.92
387.988	38.92
388.117	25.92
388.245	32.92
388.374	6.92
388.502	37.92
388.631	1.92
388.759	18.92
388.888	21.92
389.016	11.92
389.144	9.92
389.273	16.92
389.401	34.92
389.53	7.92
389.658	40.92
389.786	19.92
389.915	7.92
390.043	8.92
390.172	42.92
390.3	36.92
390.428	17.92
390.557	26.92
390.685	31.92
390.813	44.92
390.942	26.92
391.07	33.92
391.198	13.92
391.327	-2.08
391.455	-18.08
391.583	18.92
391.712	19.92
391.84	8.92
391.968	13.92
392.096	23.92
392.225	27.92
392.353	34.92
392.481	17.92
392.609	32.92
392.738	27.92
392.866	29.92
392.994	-2.08
393.122	43.92
393.251	37.92
393.379	19.92
393.507	1.92
393.635	-1.08
393.764	30.92
393.892	21.92
394.02	7.92
394.148	17.92
394.276	38.92
394.404	47.92
394.533	31.92
394.661	40.92
394.789	44.92
394.917	29.92
395.045	11.92
395.173	23.92
395.302	10.92
395.43	24.92
395.558	29.92
395.686	13.92
395.814	34.92
395.942	19.92
396.07	30.92
396.198	34.92
396.326	46.92
396.454	45.92
396.582	30.92
396.711	20.92
396.839	42.92
396.967	41.92
397.095	14.92
397.223	7.92
397.351	45.92
397.479	52.92
397.607	40.92
397.735	53.92
397.863	55.92
397.991	47.92
398.119	30.92
398.247	55.92
398.375	33.92
398.503	36.92
398.631	35.92
398.759	50.92
398.887	39.92
399.015	38.92
399.143	56.92
399.271	62.92
399.399	59.92
399.526	65.92
399.654	74.92
399.782	72.92
399.91	94.92
400.038	87.92
400.166	90.92
400.294	80.92
400.422	66.92
400.55	95.92
400.678	115.92
400.805	121.92
400.933	120.92
401.061	115.92
401.189	106.92
401.317	147.92
401.445	88.92
401.573	83.92
401.7	60.92
401.828	47.92
401.956	48.92
402.084	52.92
402.212	52.92
402.34	48.92
402.467	40.92
402.595	35.92
402.723	23.92
402.851	51.92
402.978	46.92
403.106	63.92
403.234	86.92
403.362	111.92
403.489	121.92
403.617	158.92
403.745	189.92
403.873	288.92
404	545.92
404.128	1447.92
404.256	3848.92
404.384	5015.92
404.511	5318.92
404.639	7102.92
404.767	11222.92
404.894	14510.92
405.022	4857.92
405.15	1241.92
405.277	421.92
405.405	217.92
405.533	121.92
405.66	92.92
405.788	47.92
405.916	63.92
406.043	51.92
406.171	51.92
406.299	55.92
406.426	57.92
406.554	63.92
406.681	62.92
406.809	54.92
406.937	55.92
407.064	77.92
407.192	131.92
407.319	291.92
407.447	507.92
407.574	522.92
407.702	616.92
407.83	846.92
407.957	1553.92
408.085	919.92
408.212	282.92
408.34	99.92
408.467	65.92
408.595	51.92
408.722	47.92
408.85	50.92
408.977	18.92
409.105	22.92
409.232	29.92
409.36	19.92
409.487	11.92
409.615	31.92
409.742	21.92
409.87	34.92
409.997	45.92
410.125	33.92
410.252	36.92
410.379	20.92
410.507	34.92
410.634	23.92
410.762	15.92
410.889	40.92
411.017	31.92
411.144	30.92
411.271	20.92
411.399	27.92
411.526	14.92
411.653	14.92
411.781	36.92
411.908	34.92
412.036	23.92
412.163	42.92
412.29	31.92
412.418	19.92
412.545	41.92
412.672	34.92
412.8	58.92
412.927	17.92
413.054	40.92
413.182	22.92
413.309	34.92
413.436	17.92
413.564	20.92
413.691	32.92
413.818	51.92
413.945	10.92
414.073	22.92
414.2	26.92
414.327	35.92
414.454	31.92
414.582	40.92
414.709	7.92
414.836	19.92
414.963	31.92
415.091	34.92
415.218	23.92
415.345	16.92
415.472	15.92
415.6	28.92
415.727	34.92
415.854	32.92
415.981	22.92
416.108	2.92
416.236	13.92
416.363	19.92
416.49	13.92
416.617	16.92
416.744	37.92
416.871	32.92
416.998	29.92
417.126	18.92
417.253	14.92
417.38	10.92
417.507	21.92
417.634	26.92
417.761	40.92
417.888	27.92
418.015	18.92
418.143	18.92
418.27	48.92
418.397	22.92
418.524	37.92
418.651	18.92
418.778	27.92
418.905	70.92
