Data from LowRes_mercury_15_20_11_07_2024_HR4C61881__69__15-23-39-170.txt Node

Date: Thu Nov 07 15:23:39 EST 2024
User: crc00042
Spectrometer: HR4C6188
Trigger mode: 4
Integration Time (sec): 1.000000E-1
Scans to average: 1
Electric dark correction enabled: true
Nonlinearity correction enabled: false
Boxcar width: 0
XAxis mode: Wavelengths
Number of Pixels in Spectrum: 3648
>>>>>Begin Spectral Data<<<<<
245.66	-82.77
245.797	-82.77
245.934	-82.77
246.071	-72.77
246.208	13.23
246.344	6.23
246.481	-8.77
246.618	-10.77
246.755	12.23
246.892	-17.77
247.029	-14.77
247.165	-5.77
247.302	8.23
247.439	1.23
247.576	14.23
247.713	1.23
247.849	18.23
247.986	-3.77
248.123	-0.77
248.26	7.23
248.396	13.23
248.533	-9.77
248.67	-10.77
248.806	11.23
248.943	-14.77
249.08	4.23
249.216	6.23
249.353	-26.77
249.49	-15.77
249.626	8.23
249.763	-8.77
249.9	-13.77
250.036	-15.77
250.173	4.23
250.309	-11.77
250.446	4.23
250.582	-22.77
250.719	-4.77
250.856	-12.77
250.992	1.23
251.129	-1.77
251.265	-8.77
251.402	-7.77
251.538	-17.77
251.675	-8.77
251.811	7.23
251.948	16.23
252.084	7.23
252.221	-5.77
252.357	-11.77
252.493	17.23
252.63	-10.77
252.766	-4.77
252.903	-6.77
253.039	-8.77
253.175	9.23
253.312	3.23
253.448	-7.77
253.585	-13.77
253.721	-1.77
253.857	3.23
253.994	5.23
254.13	-7.77
254.266	-13.77
254.403	1.23
254.539	-2.77
254.675	5.23
254.811	-2.77
254.948	1.23
255.084	-25.77
255.22	-11.77
255.356	7.23
255.493	1.23
255.629	3.23
255.765	-7.77
255.901	11.23
256.037	1.23
256.174	4.23
256.31	-19.77
256.446	-14.77
256.582	-2.77
256.718	19.23
256.854	28.23
256.991	15.23
257.127	41.23
257.263	-3.77
257.399	-0.77
257.535	-6.77
257.671	14.23
257.807	-10.77
257.943	5.23
258.079	-18.77
258.215	-0.77
258.351	10.23
258.487	7.23
258.623	19.23
258.759	0.23
258.895	-11.77
259.031	4.23
259.167	-0.77
259.303	11.23
259.439	4.23
259.575	-10.77
259.711	-4.77
259.847	-1.77
259.983	0.23
260.119	7.23
260.255	-19.77
260.391	-17.77
260.527	-1.77
260.663	17.23
260.799	7.23
260.934	-2.77
261.07	-4.77
261.206	-13.77
261.342	-4.77
261.478	10.23
261.614	4.23
261.749	-8.77
261.885	-20.77
262.021	-11.77
262.157	12.23
262.293	-15.77
262.428	-4.77
262.564	-16.77
262.7	-26.77
262.836	-22.77
262.971	11.23
263.107	6.23
263.243	13.23
263.378	0.23
263.514	-15.77
263.65	3.23
263.785	-19.77
263.921	-21.77
264.057	-12.77
264.192	9.23
264.328	7.23
264.464	-2.77
264.599	10.23
264.735	18.23
264.871	-15.77
265.006	-7.77
265.142	1.23
265.277	-9.77
265.413	13.23
265.548	4.23
265.684	11.23
265.819	-3.77
265.955	-24.77
266.091	-14.77
266.226	-3.77
266.362	19.23
266.497	10.23
266.633	-2.77
266.768	-10.77
266.903	9.23
267.039	-7.77
267.174	7.23
267.31	-2.77
267.445	4.23
267.581	-11.77
267.716	27.23
267.851	15.23
267.987	20.23
268.122	10.23
268.258	-10.77
268.393	-9.77
268.528	10.23
268.664	-13.77
268.799	-4.77
268.934	-20.77
269.07	10.23
269.205	18.23
269.34	17.23
269.476	8.23
269.611	-20.77
269.746	17.23
269.881	-5.77
270.017	25.23
270.152	-22.77
270.287	-10.77
270.422	-8.77
270.558	6.23
270.693	19.23
270.828	-12.77
270.963	-16.77
271.098	-11.77
271.234	-5.77
271.369	11.23
271.504	-2.77
271.639	-12.77
271.774	-8.77
271.909	0.23
272.045	-19.77
272.18	-3.77
272.315	3.23
272.45	9.23
272.585	-16.77
272.72	7.23
272.855	-5.77
272.99	25.23
273.125	-11.77
273.26	-15.77
273.395	-7.77
273.53	-13.77
273.665	11.23
273.8	-10.77
273.935	1.23
274.07	-2.77
274.205	11.23
274.34	-2.77
274.475	-9.77
274.61	15.23
274.745	8.23
274.88	19.23
275.015	-6.77
275.15	-0.77
275.285	-11.77
275.42	-3.77
275.555	13.23
275.69	7.23
275.825	-8.77
275.959	-7.77
276.094	-14.77
276.229	-18.77
276.364	-5.77
276.499	-9.77
276.634	3.23
276.768	5.23
276.903	5.23
277.038	2.23
277.173	-20.77
277.308	7.23
277.442	-21.77
277.577	-10.77
277.712	-20.77
277.847	9.23
277.981	7.23
278.116	-6.77
278.251	5.23
278.386	16.23
278.52	3.23
278.655	-3.77
278.79	-3.77
278.924	6.23
279.059	9.23
279.194	-15.77
279.328	21.23
279.463	7.23
279.598	8.23
279.732	7.23
279.867	-4.77
280.001	5.23
280.136	-3.77
280.271	10.23
280.405	-3.77
280.54	-7.77
280.674	-11.77
280.809	15.23
280.943	-5.77
281.078	0.23
281.213	15.23
281.347	-20.77
281.482	19.23
281.616	12.23
281.751	9.23
281.885	3.23
282.02	-2.77
282.154	3.23
282.288	-9.77
282.423	-11.77
282.557	-10.77
282.692	-2.77
282.826	-11.77
282.961	10.23
283.095	-14.77
283.229	-2.77
283.364	-16.77
283.498	-22.77
283.633	6.23
283.767	-1.77
283.901	-20.77
284.036	0.23
284.17	-20.77
284.304	-10.77
284.439	-3.77
284.573	-2.77
284.707	26.23
284.842	9.23
284.976	3.23
285.11	-2.77
285.244	2.23
285.379	22.23
285.513	-6.77
285.647	3.23
285.781	8.23
285.916	1.23
286.05	3.23
286.184	17.23
286.318	13.23
286.453	-5.77
286.587	-26.77
286.721	-11.77
286.855	7.23
286.989	-0.77
287.123	4.23
287.258	-21.77
287.392	-6.77
287.526	7.23
287.66	-1.77
287.794	-4.77
287.928	-4.77
288.062	6.23
288.196	-0.77
288.33	12.23
288.464	5.23
288.598	9.23
288.733	3.23
288.867	2.23
289.001	11.23
289.135	1.23
289.269	-10.77
289.403	0.23
289.537	-12.77
289.671	0.23
289.805	-12.77
289.939	0.23
290.073	-3.77
290.207	9.23
290.34	-4.77
290.474	3.23
290.608	21.23
290.742	0.23
290.876	-6.77
291.01	-8.77
291.144	25.23
291.278	9.23
291.412	14.23
291.546	-17.77
291.679	-6.77
291.813	-19.77
291.947	-2.77
292.081	5.23
292.215	-5.77
292.349	11.23
292.482	-8.77
292.616	-14.77
292.75	5.23
292.884	4.23
293.018	-16.77
293.151	-13.77
293.285	-0.77
293.419	-18.77
293.553	-4.77
293.686	-5.77
293.82	3.23
293.954	30.23
294.088	24.23
294.221	-21.77
294.355	-3.77
294.489	3.23
294.622	-6.77
294.756	-15.77
294.89	2.23
295.023	1.23
295.157	-9.77
295.291	-5.77
295.424	-5.77
295.558	-1.77
295.691	-3.77
295.825	-9.77
295.959	-4.77
296.092	-8.77
296.226	13.23
296.359	6.23
296.493	17.23
296.627	1.23
296.76	8.23
296.894	-9.77
297.027	-9.77
297.161	-5.77
297.294	-13.77
297.428	-4.77
297.561	21.23
297.695	-11.77
297.828	4.23
297.962	-5.77
298.095	-3.77
298.229	-0.77
298.362	-9.77
298.495	-5.77
298.629	-3.77
298.762	-6.77
298.896	-4.77
299.029	-3.77
299.162	-8.77
299.296	-12.77
299.429	12.23
299.563	9.23
299.696	7.23
299.829	-7.77
299.963	-5.77
300.096	16.23
300.229	7.23
300.363	-10.77
300.496	1.23
300.629	-22.77
300.763	-7.77
300.896	5.23
301.029	12.23
301.162	2.23
301.296	0.23
301.429	10.23
301.562	-19.77
301.695	17.23
301.829	19.23
301.962	20.23
302.095	24.23
302.228	-13.77
302.362	2.23
302.495	-2.77
302.628	0.23
302.761	-8.77
302.894	-5.77
303.027	11.23
303.161	-2.77
303.294	-9.77
303.427	27.23
303.56	-5.77
303.693	-3.77
303.826	-1.77
303.959	3.23
304.092	17.23
304.225	-9.77
304.359	4.23
304.492	18.23
304.625	-7.77
304.758	1.23
304.891	-5.77
305.024	3.23
305.157	-5.77
305.29	-27.77
305.423	5.23
305.556	0.23
305.689	16.23
305.822	1.23
305.955	-12.77
306.088	-9.77
306.221	-11.77
306.354	4.23
306.487	-3.77
306.62	8.23
306.752	3.23
306.885	8.23
307.018	3.23
307.151	4.23
307.284	-2.77
307.417	-8.77
307.55	-6.77
307.683	5.23
307.816	18.23
307.948	0.23
308.081	9.23
308.214	3.23
308.347	6.23
308.48	-3.77
308.613	-18.77
308.745	0.23
308.878	7.23
309.011	-6.77
309.144	15.23
309.277	-3.77
309.409	-6.77
309.542	8.23
309.675	20.23
309.808	11.23
309.94	18.23
310.073	-12.77
310.206	-31.77
310.339	8.23
310.471	-13.77
310.604	28.23
310.737	-14.77
310.869	-11.77
311.002	-16.77
311.135	-6.77
311.267	-23.77
311.4	4.23
311.533	26.23
311.665	-11.77
311.798	5.23
311.93	-4.77
312.063	21.23
312.196	49.23
312.328	79.23
312.461	48.23
312.593	15.23
312.726	49.23
312.859	90.23
312.991	149.23
313.124	24.23
313.256	6.23
313.389	24.23
313.521	-2.77
313.654	-6.77
313.786	-20.77
313.919	-16.77
314.051	-7.77
314.184	1.23
314.316	11.23
314.449	-3.77
314.581	7.23
314.714	-2.77
314.846	6.23
314.978	-12.77
315.111	-18.77
315.243	-6.77
315.376	-8.77
315.508	-10.77
315.641	2.23
315.773	10.23
315.905	-1.77
316.038	-16.77
316.17	16.23
316.302	-0.77
316.435	-18.77
316.567	-4.77
316.699	31.23
316.832	1.23
316.964	-1.77
317.096	-2.77
317.229	-14.77
317.361	-36.77
317.493	0.23
317.625	-17.77
317.758	-0.77
317.89	17.23
318.022	12.23
318.155	-12.77
318.287	7.23
318.419	1.23
318.551	-6.77
318.683	-17.77
318.816	-3.77
318.948	-0.77
319.08	-20.77
319.212	-11.77
319.344	11.23
319.477	-4.77
319.609	-5.77
319.741	15.23
319.873	-5.77
320.005	-4.77
320.137	-4.77
320.269	-9.77
320.401	4.23
320.534	-5.77
320.666	-8.77
320.798	-12.77
320.93	-15.77
321.062	-27.77
321.194	0.23
321.326	-0.77
321.458	12.23
321.59	7.23
321.722	-0.77
321.854	6.23
321.986	12.23
322.118	9.23
322.25	6.23
322.382	8.23
322.514	-4.77
322.646	3.23
322.778	23.23
322.91	1.23
323.042	0.23
323.174	6.23
323.306	-7.77
323.438	-16.77
323.57	1.23
323.702	18.23
323.834	-9.77
323.966	-12.77
324.097	-1.77
324.229	4.23
324.361	10.23
324.493	4.23
324.625	-10.77
324.757	3.23
324.889	3.23
325.021	4.23
325.152	7.23
325.284	-2.77
325.416	-9.77
325.548	18.23
325.68	-6.77
325.811	17.23
325.943	-8.77
326.075	-6.77
326.207	-7.77
326.339	9.23
326.47	-15.77
326.602	-0.77
326.734	15.23
326.866	15.23
326.997	-3.77
327.129	-14.77
327.261	-11.77
327.392	-10.77
327.524	-10.77
327.656	-3.77
327.787	8.23
327.919	9.23
328.051	-3.77
328.182	23.23
328.314	-3.77
328.446	2.23
328.577	19.23
328.709	1.23
328.841	-3.77
328.972	9.23
329.104	2.23
329.235	0.23
329.367	-7.77
329.499	-1.77
329.63	12.23
329.762	-7.77
329.893	24.23
330.025	6.23
330.156	1.23
330.288	-11.77
330.419	17.23
330.551	14.23
330.683	12.23
330.814	1.23
330.946	-20.77
331.077	-24.77
331.208	-13.77
331.34	-8.77
331.471	-16.77
331.603	-0.77
331.734	-18.77
331.866	5.23
331.997	-4.77
332.129	-13.77
332.26	12.23
332.392	25.23
332.523	-3.77
332.654	0.23
332.786	5.23
332.917	-21.77
333.048	22.23
333.18	13.23
333.311	-10.77
333.443	-2.77
333.574	5.23
333.705	30.23
333.837	45.23
333.968	116.23
334.099	218.23
334.231	200.23
334.362	47.23
334.493	34.23
334.624	13.23
334.756	12.23
334.887	20.23
335.018	6.23
335.15	15.23
335.281	18.23
335.412	36.23
335.543	5.23
335.675	-3.77
335.806	20.23
335.937	18.23
336.068	31.23
336.199	36.23
336.331	4.23
336.462	4.23
336.593	16.23
336.724	1.23
336.855	0.23
336.986	9.23
337.118	11.23
337.249	21.23
337.38	-3.77
337.511	-0.77
337.642	5.23
337.773	7.23
337.904	-1.77
338.035	18.23
338.166	3.23
338.298	12.23
338.429	-2.77
338.56	-0.77
338.691	25.23
338.822	12.23
338.953	12.23
339.084	27.23
339.215	25.23
339.346	3.23
339.477	-6.77
339.608	2.23
339.739	-8.77
339.87	-5.77
340.001	-3.77
340.132	17.23
340.263	4.23
340.394	10.23
340.525	13.23
340.656	-2.77
340.787	0.23
340.918	24.23
341.049	23.23
341.179	19.23
341.31	-5.77
341.441	31.23
341.572	31.23
341.703	6.23
341.834	5.23
341.965	26.23
342.096	8.23
342.227	21.23
342.357	12.23
342.488	18.23
342.619	14.23
342.75	31.23
342.881	11.23
343.012	16.23
343.142	40.23
343.273	4.23
343.404	21.23
343.535	23.23
343.666	28.23
343.796	24.23
343.927	28.23
344.058	25.23
344.189	41.23
344.319	31.23
344.45	29.23
344.581	7.23
344.712	10.23
344.842	11.23
344.973	24.23
345.104	26.23
345.234	-3.77
345.365	5.23
345.496	24.23
345.626	37.23
345.757	18.23
345.888	22.23
346.018	26.23
346.149	20.23
346.28	40.23
346.41	20.23
346.541	18.23
346.672	18.23
346.802	38.23
346.933	10.23
347.063	20.23
347.194	24.23
347.325	18.23
347.455	37.23
347.586	20.23
347.716	24.23
347.847	39.23
347.977	38.23
348.108	40.23
348.238	30.23
348.369	13.23
348.499	49.23
348.63	46.23
348.76	38.23
348.891	59.23
349.021	51.23
349.152	54.23
349.282	28.23
349.413	44.23
349.543	42.23
349.674	35.23
349.804	28.23
349.935	12.23
350.065	28.23
350.196	13.23
350.326	17.23
350.456	2.23
350.587	34.23
350.717	15.23
350.848	13.23
350.978	21.23
351.108	11.23
351.239	37.23
351.369	2.23
351.499	12.23
351.63	0.23
351.76	16.23
351.89	8.23
352.021	5.23
352.151	18.23
352.281	16.23
352.412	26.23
352.542	19.23
352.672	10.23
352.803	12.23
352.933	15.23
353.063	24.23
353.193	27.23
353.324	13.23
353.454	19.23
353.584	26.23
353.714	11.23
353.845	9.23
353.975	5.23
354.105	9.23
354.235	19.23
354.365	30.23
354.496	32.23
354.626	15.23
354.756	32.23
354.886	4.23
355.016	23.23
355.146	-2.77
355.277	17.23
355.407	8.23
355.537	20.23
355.667	17.23
355.797	12.23
355.927	5.23
356.057	20.23
356.187	9.23
356.318	16.23
356.448	33.23
356.578	36.23
356.708	25.23
356.838	23.23
356.968	11.23
357.098	31.23
357.228	22.23
357.358	17.23
357.488	12.23
357.618	41.23
357.748	33.23
357.878	19.23
358.008	22.23
358.138	27.23
358.268	5.23
358.398	18.23
358.528	-4.77
358.658	25.23
358.788	22.23
358.918	26.23
359.048	27.23
359.178	51.23
359.308	44.23
359.438	52.23
359.568	36.23
359.698	23.23
359.827	28.23
359.957	34.23
360.087	23.23
360.217	20.23
360.347	29.23
360.477	29.23
360.607	14.23
360.737	35.23
360.866	12.23
360.996	9.23
361.126	4.23
361.256	38.23
361.386	63.23
361.516	55.23
361.645	19.23
361.775	38.23
361.905	21.23
362.035	30.23
362.165	31.23
362.294	23.23
362.424	51.23
362.554	41.23
362.684	13.23
362.813	29.23
362.943	44.23
363.073	50.23
363.203	67.23
363.332	73.23
363.462	63.23
363.592	98.23
363.721	94.23
363.851	154.23
363.981	185.23
364.111	236.23
364.24	317.23
364.37	470.23
364.5	859.23
364.629	1805.23
364.759	3854.23
364.888	6248.23
365.018	9360.23
365.148	14780.23
365.277	12877.23
365.407	4739.23
365.537	3122.23
365.666	4002.23
365.796	1827.23
365.925	797.23
366.055	741.23
366.184	1045.23
366.314	1382.23
366.444	2467.23
366.573	2108.23
366.703	652.23
366.832	204.23
366.962	115.23
367.091	72.23
367.221	64.23
367.35	49.23
367.48	63.23
367.609	37.23
367.739	48.23
367.868	12.23
367.998	37.23
368.127	30.23
368.257	43.23
368.386	53.23
368.516	64.23
368.645	41.23
368.775	42.23
368.904	27.23
369.033	24.23
369.163	14.23
369.292	32.23
369.422	38.23
369.551	33.23
369.68	21.23
369.81	33.23
369.939	6.23
370.069	40.23
370.198	32.23
370.327	25.23
370.457	37.23
370.586	21.23
370.715	37.23
370.845	31.23
370.974	32.23
371.103	39.23
371.233	37.23
371.362	56.23
371.491	11.23
371.621	42.23
371.75	41.23
371.879	25.23
372.008	49.23
372.138	48.23
372.267	51.23
372.396	36.23
372.525	37.23
372.655	30.23
372.784	15.23
372.913	41.23
373.042	38.23
373.172	52.23
373.301	-2.77
373.43	1.23
373.559	24.23
373.688	1.23
373.818	21.23
373.947	23.23
374.076	22.23
374.205	8.23
374.334	15.23
374.463	-7.77
374.593	20.23
374.722	12.23
374.851	10.23
374.98	13.23
375.109	22.23
375.238	6.23
375.367	38.23
375.496	-6.77
375.625	2.23
375.755	29.23
375.884	34.23
376.013	33.23
376.142	8.23
376.271	8.23
376.4	28.23
376.529	20.23
376.658	18.23
376.787	29.23
376.916	29.23
377.045	12.23
377.174	14.23
377.303	3.23
377.432	31.23
377.561	45.23
377.69	27.23
377.819	40.23
377.948	11.23
378.077	-2.77
378.206	-14.77
378.335	19.23
378.464	20.23
378.593	25.23
378.722	-2.77
378.851	19.23
378.98	11.23
379.108	0.23
379.237	1.23
379.366	6.23
379.495	5.23
379.624	14.23
379.753	-4.77
379.882	22.23
380.011	18.23
380.14	16.23
380.268	8.23
380.397	11.23
380.526	36.23
380.655	4.23
380.784	-6.77
380.913	4.23
381.041	10.23
381.17	-12.77
381.299	5.23
381.428	23.23
381.557	27.23
381.685	21.23
381.814	18.23
381.943	19.23
382.072	-4.77
382.2	-2.77
382.329	1.23
382.458	16.23
382.587	24.23
382.715	28.23
382.844	16.23
382.973	20.23
383.102	5.23
383.23	4.23
383.359	-4.77
383.488	27.23
383.616	17.23
383.745	-3.77
383.874	4.23
384.003	4.23
384.131	-4.77
384.26	4.23
384.389	34.23
384.517	19.23
384.646	15.23
384.774	9.23
384.903	16.23
385.032	30.23
385.16	3.23
385.289	20.23
385.418	20.23
385.546	42.23
385.675	11.23
385.803	19.23
385.932	19.23
386.06	6.23
386.189	20.23
386.318	22.23
386.446	22.23
386.575	27.23
386.703	22.23
386.832	19.23
386.96	-7.77
387.089	28.23
387.217	21.23
387.346	11.23
387.474	29.23
387.603	18.23
387.731	5.23
387.86	21.23
387.988	21.23
388.117	32.23
388.245	4.23
388.374	9.23
388.502	6.23
388.631	-6.77
388.759	4.23
388.888	24.23
389.016	4.23
389.144	9.23
389.273	-3.77
389.401	4.23
389.53	5.23
389.658	28.23
389.786	4.23
389.915	0.23
390.043	-3.77
390.172	16.23
390.3	39.23
390.428	23.23
390.557	33.23
390.685	48.23
390.813	43.23
390.942	45.23
391.07	18.23
391.198	5.23
391.327	6.23
391.455	14.23
391.583	35.23
391.712	20.23
391.84	12.23
391.968	12.23
392.096	22.23
392.225	18.23
392.353	18.23
392.481	31.23
392.609	19.23
392.738	15.23
392.866	28.23
392.994	13.23
393.122	28.23
393.251	10.23
393.379	9.23
393.507	12.23
393.635	20.23
393.764	11.23
393.892	19.23
394.02	15.23
394.148	19.23
394.276	27.23
394.404	40.23
394.533	11.23
394.661	-1.77
394.789	20.23
394.917	29.23
395.045	4.23
395.173	15.23
395.302	7.23
395.43	38.23
395.558	28.23
395.686	32.23
395.814	48.23
395.942	31.23
396.07	35.23
396.198	16.23
396.326	27.23
396.454	41.23
396.582	12.23
396.711	13.23
396.839	22.23
396.967	36.23
397.095	8.23
397.223	23.23
397.351	35.23
397.479	41.23
397.607	40.23
397.735	37.23
397.863	36.23
397.991	42.23
398.119	33.23
398.247	41.23
398.375	48.23
398.503	39.23
398.631	25.23
398.759	65.23
398.887	36.23
399.015	30.23
399.143	52.23
399.271	64.23
399.399	64.23
399.526	70.23
399.654	63.23
399.782	43.23
399.91	85.23
400.038	92.23
400.166	73.23
400.294	63.23
400.422	73.23
400.55	106.23
400.678	85.23
400.805	102.23
400.933	98.23
401.061	125.23
401.189	117.23
401.317	119.23
401.445	103.23
401.573	58.23
401.7	29.23
401.828	53.23
401.956	39.23
402.084	17.23
402.212	22.23
402.34	23.23
402.467	44.23
402.595	25.23
402.723	32.23
402.851	63.23
402.978	45.23
403.106	71.23
403.234	69.23
403.362	118.23
403.489	125.23
403.617	151.23
403.745	193.23
403.873	288.23
404	568.23
404.128	1450.23
404.256	3881.23
404.384	5087.23
404.511	5432.23
404.639	7153.23
404.767	11447.23
404.894	14631.23
405.022	4914.23
405.15	1310.23
405.277	397.23
405.405	218.23
405.533	139.23
405.66	114.23
405.788	66.23
405.916	28.23
406.043	37.23
406.171	61.23
406.299	54.23
406.426	75.23
406.554	52.23
406.681	59.23
406.809	25.23
406.937	65.23
407.064	84.23
407.192	121.23
407.319	287.23
407.447	533.23
407.574	546.23
407.702	619.23
407.83	843.23
407.957	1597.23
408.085	923.23
408.212	281.23
408.34	103.23
408.467	49.23
408.595	40.23
408.722	44.23
408.85	40.23
408.977	38.23
409.105	24.23
409.232	45.23
409.36	27.23
409.487	33.23
409.615	34.23
409.742	32.23
409.87	25.23
409.997	35.23
410.125	37.23
410.252	44.23
410.379	21.23
410.507	42.23
410.634	26.23
410.762	9.23
410.889	15.23
411.017	28.23
411.144	21.23
411.271	18.23
411.399	24.23
411.526	30.23
411.653	51.23
411.781	27.23
411.908	21.23
412.036	21.23
412.163	22.23
412.29	29.23
412.418	39.23
412.545	33.23
412.672	31.23
412.8	52.23
412.927	22.23
413.054	34.23
413.182	27.23
413.309	25.23
413.436	10.23
413.564	16.23
413.691	16.23
413.818	34.23
413.945	11.23
414.073	16.23
414.2	27.23
414.327	30.23
414.454	32.23
414.582	27.23
414.709	22.23
414.836	4.23
414.963	25.23
415.091	35.23
415.218	19.23
415.345	28.23
415.472	23.23
415.6	1.23
415.727	30.23
415.854	29.23
415.981	1.23
416.108	30.23
416.236	8.23
416.363	15.23
416.49	14.23
416.617	16.23
416.744	33.23
416.871	26.23
416.998	24.23
417.126	33.23
417.253	-2.77
417.38	37.23
417.507	23.23
417.634	41.23
417.761	35.23
417.888	42.23
418.015	43.23
418.143	47.23
418.27	57.23
418.397	32.23
418.524	40.23
418.651	32.23
