Data from LowRes_mercury_15_20_11_07_2024_HR4C61881__11__15-23-33-372.txt Node

Date: Thu Nov 07 15:23:33 EST 2024
User: crc00042
Spectrometer: HR4C6188
Trigger mode: 4
Integration Time (sec): 1.000000E-1
Scans to average: 1
Electric dark correction enabled: true
Nonlinearity correction enabled: false
Boxcar width: 0
XAxis mode: Wavelengths
Number of Pixels in Spectrum: 3648
>>>>>Begin Spectral Data<<<<<
245.66	-77.92
245.797	-77.92
245.934	-77.92
246.071	-82.92
246.208	14.08
246.344	13.08
246.481	-11.92
246.618	-7.92
246.755	8.08
246.892	-15.92
247.029	-18.92
247.165	-14.92
247.302	5.08
247.439	1.08
247.576	5.08
247.713	3.08
247.849	27.08
247.986	7.08
248.123	-8.92
248.26	3.08
248.396	19.08
248.533	-2.92
248.67	-25.92
248.806	-10.92
248.943	-13.92
249.08	6.08
249.216	21.08
249.353	-12.92
249.49	-8.92
249.626	9.08
249.763	19.08
249.9	-3.92
250.036	-5.92
250.173	3.08
250.309	12.08
250.446	-8.92
250.582	-19.92
250.719	-8.92
250.856	-7.92
250.992	-13.92
251.129	5.08
251.265	-8.92
251.402	-2.92
251.538	12.08
251.675	-21.92
251.811	11.08
251.948	5.08
252.084	-9.92
252.221	-7.92
252.357	-13.92
252.493	25.08
252.63	-3.92
252.766	29.08
252.903	-1.92
253.039	-23.92
253.175	-7.92
253.312	8.08
253.448	-6.92
253.585	-21.92
253.721	-14.92
253.857	-16.92
253.994	-1.92
254.13	4.08
254.266	-4.92
254.403	-5.92
254.539	-5.92
254.675	0.08
254.811	-4.92
254.948	10.08
255.084	1.08
255.22	-6.92
255.356	2.08
255.493	-1.92
255.629	-4.92
255.765	-12.92
255.901	9.08
256.037	-6.92
256.174	1.08
256.31	-15.92
256.446	-7.92
256.582	14.08
256.718	12.08
256.854	22.08
256.991	11.08
257.127	-5.92
257.263	-2.92
257.399	-6.92
257.535	-20.92
257.671	-25.92
257.807	-27.92
257.943	-13.92
258.079	-10.92
258.215	2.08
258.351	21.08
258.487	2.08
258.623	12.08
258.759	2.08
258.895	-15.92
259.031	-19.92
259.167	-2.92
259.303	-1.92
259.439	-9.92
259.575	3.08
259.711	-8.92
259.847	-6.92
259.983	3.08
260.119	-0.92
260.255	-10.92
260.391	5.08
260.527	16.08
260.663	-6.92
260.799	-3.92
260.934	7.08
261.07	-15.92
261.206	-20.92
261.342	-8.92
261.478	13.08
261.614	7.08
261.749	17.08
261.885	7.08
262.021	-4.92
262.157	13.08
262.293	-2.92
262.428	-23.92
262.564	-21.92
262.7	7.08
262.836	-14.92
262.971	10.08
263.107	13.08
263.243	23.08
263.378	-0.92
263.514	-18.92
263.65	-16.92
263.785	-24.92
263.921	0.08
264.057	4.08
264.192	12.08
264.328	18.08
264.464	-9.92
264.599	-9.92
264.735	1.08
264.871	-15.92
265.006	4.08
265.142	5.08
265.277	-0.92
265.413	6.08
265.548	4.08
265.684	20.08
265.819	-4.92
265.955	-13.92
266.091	-8.92
266.226	-13.92
266.362	-15.92
266.497	10.08
266.633	-7.92
266.768	9.08
266.903	6.08
267.039	-2.92
267.174	2.08
267.31	-15.92
267.445	-15.92
267.581	-6.92
267.716	5.08
267.851	-3.92
267.987	16.08
268.122	6.08
268.258	5.08
268.393	-14.92
268.528	-9.92
268.664	-2.92
268.799	3.08
268.934	12.08
269.07	-22.92
269.205	-8.92
269.34	9.08
269.476	2.08
269.611	-17.92
269.746	21.08
269.881	5.08
270.017	15.08
270.152	3.08
270.287	7.08
270.422	12.08
270.558	-9.92
270.693	-3.92
270.828	-18.92
270.963	-2.92
271.098	-10.92
271.234	-6.92
271.369	7.08
271.504	0.08
271.639	-12.92
271.774	-4.92
271.909	-21.92
272.045	-25.92
272.18	-14.92
272.315	-3.92
272.45	7.08
272.585	-5.92
272.72	5.08
272.855	-13.92
272.99	7.08
273.125	-21.92
273.26	-20.92
273.395	-22.92
273.53	-12.92
273.665	9.08
273.8	9.08
273.935	-2.92
274.07	1.08
274.205	7.08
274.34	13.08
274.475	-4.92
274.61	11.08
274.745	-5.92
274.88	23.08
275.015	-4.92
275.15	0.08
275.285	23.08
275.42	-10.92
275.555	-2.92
275.69	1.08
275.825	4.08
275.959	8.08
276.094	-5.92
276.229	-18.92
276.364	-12.92
276.499	-14.92
276.634	-21.92
276.768	-2.92
276.903	-3.92
277.038	4.08
277.173	-3.92
277.308	-4.92
277.442	-0.92
277.577	-9.92
277.712	-4.92
277.847	-8.92
277.981	13.08
278.116	-8.92
278.251	8.08
278.386	2.08
278.52	5.08
278.655	-15.92
278.79	11.08
278.924	4.08
279.059	13.08
279.194	-19.92
279.328	19.08
279.463	3.08
279.598	27.08
279.732	0.08
279.867	13.08
280.001	-2.92
280.136	-5.92
280.271	1.08
280.405	4.08
280.54	-15.92
280.674	-7.92
280.809	16.08
280.943	-14.92
281.078	-11.92
281.213	2.08
281.347	15.08
281.482	-1.92
281.616	-11.92
281.751	5.08
281.885	-10.92
282.02	1.08
282.154	8.08
282.288	-25.92
282.423	-23.92
282.557	-22.92
282.692	6.08
282.826	7.08
282.961	-7.92
283.095	-2.92
283.229	-7.92
283.364	-2.92
283.498	-9.92
283.633	5.08
283.767	6.08
283.901	-5.92
284.036	2.08
284.17	-19.92
284.304	-3.92
284.439	3.08
284.573	-3.92
284.707	6.08
284.842	3.08
284.976	-2.92
285.11	-15.92
285.244	-6.92
285.379	29.08
285.513	-0.92
285.647	1.08
285.781	-10.92
285.916	9.08
286.05	10.08
286.184	7.08
286.318	3.08
286.453	-16.92
286.587	-9.92
286.721	-31.92
286.855	22.08
286.989	4.08
287.123	-2.92
287.258	-4.92
287.392	15.08
287.526	18.08
287.66	-2.92
287.794	11.08
287.928	1.08
288.062	6.08
288.196	-20.92
288.33	-6.92
288.464	12.08
288.598	-6.92
288.733	-15.92
288.867	1.08
289.001	1.08
289.135	-3.92
289.269	-11.92
289.403	6.08
289.537	5.08
289.671	12.08
289.805	-18.92
289.939	-21.92
290.073	-8.92
290.207	-0.92
290.34	-9.92
290.474	1.08
290.608	7.08
290.742	6.08
290.876	7.08
291.01	6.08
291.144	17.08
291.278	7.08
291.412	-1.92
291.546	0.08
291.679	-0.92
291.813	5.08
291.947	13.08
292.081	-5.92
292.215	-0.92
292.349	13.08
292.482	11.08
292.616	-11.92
292.75	-7.92
292.884	13.08
293.018	9.08
293.151	-9.92
293.285	6.08
293.419	-18.92
293.553	-16.92
293.686	-9.92
293.82	6.08
293.954	8.08
294.088	30.08
294.221	-13.92
294.355	-22.92
294.489	7.08
294.622	-3.92
294.756	-9.92
294.89	10.08
295.023	16.08
295.157	14.08
295.291	-1.92
295.424	22.08
295.558	-2.92
295.691	-11.92
295.825	1.08
295.959	7.08
296.092	-11.92
296.226	-21.92
296.359	-2.92
296.493	14.08
296.627	4.08
296.76	-12.92
296.894	10.08
297.027	-9.92
297.161	0.08
297.294	-2.92
297.428	-9.92
297.561	8.08
297.695	-8.92
297.828	9.08
297.962	4.08
298.095	-8.92
298.229	-6.92
298.362	2.08
298.495	0.08
298.629	-11.92
298.762	-7.92
298.896	-10.92
299.029	14.08
299.162	-5.92
299.296	1.08
299.429	-6.92
299.563	8.08
299.696	2.08
299.829	5.08
299.963	6.08
300.096	21.08
300.229	9.08
300.363	11.08
300.496	11.08
300.629	-14.92
300.763	-4.92
300.896	-4.92
301.029	5.08
301.162	-2.92
301.296	-6.92
301.429	-18.92
301.562	-20.92
301.695	-0.92
301.829	-13.92
301.962	18.08
302.095	-9.92
302.228	-15.92
302.362	3.08
302.495	-1.92
302.628	13.08
302.761	8.08
302.894	-9.92
303.027	2.08
303.161	-0.92
303.294	-3.92
303.427	3.08
303.56	-11.92
303.693	0.08
303.826	-5.92
303.959	0.08
304.092	-7.92
304.225	-7.92
304.359	6.08
304.492	6.08
304.625	-14.92
304.758	-13.92
304.891	-23.92
305.024	1.08
305.157	1.08
305.29	-25.92
305.423	-7.92
305.556	-11.92
305.689	18.08
305.822	-18.92
305.955	-19.92
306.088	-7.92
306.221	0.08
306.354	-8.92
306.487	-21.92
306.62	-5.92
306.752	2.08
306.885	11.08
307.018	6.08
307.151	3.08
307.284	15.08
307.417	-3.92
307.55	12.08
307.683	-7.92
307.816	9.08
307.948	12.08
308.081	-8.92
308.214	6.08
308.347	28.08
308.48	-10.92
308.613	4.08
308.745	0.08
308.878	5.08
309.011	1.08
309.144	18.08
309.277	-18.92
309.409	-3.92
309.542	4.08
309.675	-4.92
309.808	-3.92
309.94	20.08
310.073	-13.92
310.206	-12.92
310.339	-0.92
310.471	-4.92
310.604	20.08
310.737	-4.92
310.869	-2.92
311.002	-7.92
311.135	-12.92
311.267	-21.92
311.4	-9.92
311.533	18.08
311.665	13.08
311.798	-0.92
311.93	15.08
312.063	21.08
312.196	38.08
312.328	62.08
312.461	52.08
312.593	30.08
312.726	47.08
312.859	84.08
312.991	159.08
313.124	34.08
313.256	12.08
313.389	1.08
313.521	-0.92
313.654	12.08
313.786	-25.92
313.919	-15.92
314.051	7.08
314.184	2.08
314.316	-16.92
314.449	-14.92
314.581	-17.92
314.714	-0.92
314.846	0.08
314.978	-1.92
315.111	-8.92
315.243	-8.92
315.376	2.08
315.508	1.08
315.641	7.08
315.773	20.08
315.905	-5.92
316.038	-7.92
316.17	-16.92
316.302	7.08
316.435	-8.92
316.567	-10.92
316.699	5.08
316.832	-11.92
316.964	-5.92
317.096	5.08
317.229	-26.92
317.361	3.08
317.493	3.08
317.625	3.08
317.758	15.08
317.89	20.08
318.022	-8.92
318.155	-18.92
318.287	-17.92
318.419	14.08
318.551	-14.92
318.683	-9.92
318.816	2.08
318.948	-4.92
319.08	-13.92
319.212	1.08
319.344	6.08
319.477	-10.92
319.609	9.08
319.741	9.08
319.873	-2.92
320.005	9.08
320.137	8.08
320.269	-10.92
320.401	-1.92
320.534	1.08
320.666	-22.92
320.798	-12.92
320.93	8.08
321.062	-14.92
321.194	-12.92
321.326	-0.92
321.458	5.08
321.59	4.08
321.722	-11.92
321.854	1.08
321.986	-9.92
322.118	-2.92
322.25	1.08
322.382	2.08
322.514	-7.92
322.646	-9.92
322.778	5.08
322.91	-8.92
323.042	-0.92
323.174	9.08
323.306	-27.92
323.438	-20.92
323.57	-6.92
323.702	-8.92
323.834	-5.92
323.966	-11.92
324.097	-6.92
324.229	17.08
324.361	7.08
324.493	8.08
324.625	-10.92
324.757	7.08
324.889	4.08
325.021	17.08
325.152	26.08
325.284	4.08
325.416	2.08
325.548	3.08
325.68	1.08
325.811	31.08
325.943	-5.92
326.075	-12.92
326.207	-5.92
326.339	2.08
326.47	-15.92
326.602	10.08
326.734	7.08
326.866	12.08
326.997	-19.92
327.129	1.08
327.261	-14.92
327.392	-13.92
327.524	1.08
327.656	3.08
327.787	20.08
327.919	21.08
328.051	-2.92
328.182	16.08
328.314	21.08
328.446	3.08
328.577	25.08
328.709	-2.92
328.841	-9.92
328.972	-16.92
329.104	-16.92
329.235	-0.92
329.367	-22.92
329.499	-7.92
329.63	-5.92
329.762	-15.92
329.893	16.08
330.025	11.08
330.156	-17.92
330.288	2.08
330.419	12.08
330.551	18.08
330.683	20.08
330.814	7.08
330.946	12.08
331.077	-4.92
331.208	-3.92
331.34	-8.92
331.471	-24.92
331.603	-19.92
331.734	-14.92
331.866	0.08
331.997	13.08
332.129	-5.92
332.26	-4.92
332.392	10.08
332.523	1.08
332.654	-32.92
332.786	-10.92
332.917	15.08
333.048	19.08
333.18	9.08
333.311	8.08
333.443	-6.92
333.574	-5.92
333.705	32.08
333.837	37.08
333.968	103.08
334.099	227.08
334.231	217.08
334.362	51.08
334.493	20.08
334.624	3.08
334.756	8.08
334.887	6.08
335.018	0.08
335.15	-7.92
335.281	-4.92
335.412	4.08
335.543	-2.92
335.675	-6.92
335.806	16.08
335.937	0.08
336.068	6.08
336.199	3.08
336.331	-7.92
336.462	-5.92
336.593	16.08
336.724	-8.92
336.855	-1.92
336.986	14.08
337.118	9.08
337.249	10.08
337.38	4.08
337.511	-1.92
337.642	14.08
337.773	-9.92
337.904	21.08
338.035	19.08
338.166	12.08
338.298	16.08
338.429	-11.92
338.56	6.08
338.691	22.08
338.822	10.08
338.953	37.08
339.084	5.08
339.215	18.08
339.346	-0.92
339.477	-4.92
339.608	15.08
339.739	4.08
339.87	7.08
340.001	2.08
340.132	30.08
340.263	22.08
340.394	13.08
340.525	3.08
340.656	-23.92
340.787	-15.92
340.918	27.08
341.049	4.08
341.179	5.08
341.31	7.08
341.441	6.08
341.572	7.08
341.703	-6.92
341.834	-6.92
341.965	22.08
342.096	5.08
342.227	5.08
342.357	7.08
342.488	18.08
342.619	19.08
342.75	16.08
342.881	-3.92
343.012	39.08
343.142	38.08
343.273	6.08
343.404	15.08
343.535	45.08
343.666	22.08
343.796	27.08
343.927	31.08
344.058	16.08
344.189	19.08
344.319	30.08
344.45	5.08
344.581	-6.92
344.712	2.08
344.842	22.08
344.973	17.08
345.104	12.08
345.234	12.08
345.365	8.08
345.496	8.08
345.626	25.08
345.757	16.08
345.888	3.08
346.018	27.08
346.149	26.08
346.28	29.08
346.41	14.08
346.541	32.08
346.672	16.08
346.802	21.08
346.933	8.08
347.063	19.08
347.194	42.08
347.325	36.08
347.455	40.08
347.586	23.08
347.716	6.08
347.847	27.08
347.977	25.08
348.108	38.08
348.238	43.08
348.369	20.08
348.499	31.08
348.63	26.08
348.76	45.08
348.891	42.08
349.021	53.08
349.152	36.08
349.282	53.08
349.413	46.08
349.543	42.08
349.674	26.08
349.804	62.08
349.935	17.08
350.065	10.08
350.196	-0.92
350.326	7.08
350.456	6.08
350.587	34.08
350.717	26.08
350.848	16.08
350.978	21.08
351.108	6.08
351.239	27.08
351.369	17.08
351.499	25.08
351.63	47.08
351.76	5.08
351.89	6.08
352.021	4.08
352.151	14.08
352.281	23.08
352.412	37.08
352.542	14.08
352.672	11.08
352.803	4.08
352.933	25.08
353.063	20.08
353.193	21.08
353.324	18.08
353.454	23.08
353.584	21.08
353.714	5.08
353.845	17.08
353.975	21.08
354.105	6.08
354.235	12.08
354.365	22.08
354.496	23.08
354.626	21.08
354.756	20.08
354.886	18.08
355.016	22.08
355.146	14.08
355.277	13.08
355.407	15.08
355.537	23.08
355.667	22.08
355.797	4.08
355.927	0.08
356.057	16.08
356.187	3.08
356.318	19.08
356.448	13.08
356.578	20.08
356.708	25.08
356.838	5.08
356.968	12.08
357.098	23.08
357.228	16.08
357.358	5.08
357.488	8.08
357.618	62.08
357.748	31.08
357.878	22.08
358.008	22.08
358.138	15.08
358.268	-1.92
358.398	34.08
358.528	4.08
358.658	25.08
358.788	27.08
358.918	38.08
359.048	23.08
359.178	33.08
359.308	33.08
359.438	23.08
359.568	31.08
359.698	41.08
359.827	9.08
359.957	27.08
360.087	29.08
360.217	32.08
360.347	26.08
360.477	51.08
360.607	-0.92
360.737	38.08
360.866	31.08
360.996	2.08
361.126	27.08
361.256	52.08
361.386	44.08
361.516	26.08
361.645	4.08
361.775	37.08
361.905	9.08
362.035	41.08
362.165	12.08
362.294	40.08
362.424	51.08
362.554	37.08
362.684	29.08
362.813	48.08
362.943	50.08
363.073	39.08
363.203	58.08
363.332	52.08
363.462	75.08
363.592	95.08
363.721	107.08
363.851	166.08
363.981	189.08
364.111	245.08
364.24	315.08
364.37	470.08
364.5	899.08
364.629	1846.08
364.759	3920.08
364.888	6416.08
365.018	9509.08
365.148	14861.08
365.277	13115.08
365.407	4804.08
365.537	3120.08
365.666	4069.08
365.796	1825.08
365.925	808.08
366.055	775.08
366.184	1048.08
366.314	1416.08
366.444	2485.08
366.573	2120.08
366.703	665.08
366.832	220.08
366.962	113.08
367.091	72.08
367.221	72.08
367.35	56.08
367.48	95.08
367.609	54.08
367.739	71.08
367.868	29.08
367.998	39.08
368.127	53.08
368.257	58.08
368.386	42.08
368.516	52.08
368.645	39.08
368.775	33.08
368.904	40.08
369.033	20.08
369.163	13.08
369.292	29.08
369.422	24.08
369.551	51.08
369.68	41.08
369.81	51.08
369.939	23.08
370.069	62.08
370.198	33.08
370.327	19.08
370.457	14.08
370.586	38.08
370.715	31.08
370.845	15.08
370.974	35.08
371.103	50.08
371.233	31.08
371.362	37.08
371.491	21.08
371.621	36.08
371.75	24.08
371.879	34.08
372.008	35.08
372.138	56.08
372.267	78.08
372.396	42.08
372.525	31.08
372.655	23.08
372.784	26.08
372.913	32.08
373.042	54.08
373.172	44.08
373.301	5.08
373.43	13.08
373.559	6.08
373.688	25.08
373.818	38.08
373.947	18.08
374.076	-0.92
374.205	19.08
374.334	-1.92
374.463	3.08
374.593	28.08
374.722	7.08
374.851	26.08
374.98	18.08
375.109	1.08
375.238	25.08
375.367	37.08
375.496	8.08
375.625	-5.92
375.755	31.08
375.884	27.08
376.013	10.08
376.142	5.08
376.271	22.08
376.4	20.08
376.529	20.08
376.658	8.08
376.787	21.08
376.916	27.08
377.045	13.08
377.174	36.08
377.303	17.08
377.432	25.08
377.561	39.08
377.69	9.08
377.819	33.08
377.948	25.08
378.077	8.08
378.206	7.08
378.335	-7.92
378.464	7.08
378.593	46.08
378.722	16.08
378.851	11.08
378.98	20.08
379.108	3.08
379.237	1.08
379.366	14.08
379.495	18.08
379.624	27.08
379.753	5.08
379.882	0.08
380.011	3.08
380.14	5.08
380.268	6.08
380.397	8.08
380.526	22.08
380.655	-9.92
380.784	-11.92
380.913	9.08
381.041	-3.92
381.17	-10.92
381.299	-14.92
381.428	12.08
381.557	25.08
381.685	17.08
381.814	-1.92
381.943	19.08
382.072	-1.92
382.2	4.08
382.329	5.08
382.458	3.08
382.587	9.08
382.715	19.08
382.844	10.08
382.973	25.08
383.102	25.08
383.23	13.08
383.359	-0.92
383.488	13.08
383.616	7.08
383.745	-3.92
383.874	15.08
384.003	5.08
384.131	5.08
384.26	10.08
384.389	23.08
384.517	6.08
384.646	-2.92
384.774	12.08
384.903	41.08
385.032	48.08
385.16	24.08
385.289	20.08
385.418	27.08
385.546	13.08
385.675	14.08
385.803	23.08
385.932	16.08
386.06	3.08
386.189	5.08
386.318	15.08
386.446	8.08
386.575	37.08
386.703	21.08
386.832	5.08
386.96	10.08
387.089	24.08
387.217	22.08
387.346	-5.92
387.474	25.08
387.603	24.08
387.731	24.08
387.86	32.08
387.988	25.08
388.117	5.08
388.245	16.08
388.374	13.08
388.502	13.08
388.631	7.08
388.759	13.08
388.888	13.08
389.016	12.08
389.144	4.08
389.273	4.08
389.401	-13.92
389.53	13.08
389.658	47.08
389.786	11.08
389.915	0.08
390.043	4.08
390.172	21.08
390.3	28.08
390.428	35.08
390.557	24.08
390.685	21.08
390.813	27.08
390.942	42.08
391.07	5.08
391.198	19.08
391.327	18.08
391.455	9.08
391.583	37.08
391.712	18.08
391.84	17.08
391.968	23.08
392.096	28.08
392.225	19.08
392.353	28.08
392.481	5.08
392.609	29.08
392.738	19.08
392.866	42.08
392.994	37.08
393.122	24.08
393.251	21.08
393.379	32.08
393.507	20.08
393.635	10.08
393.764	12.08
393.892	29.08
394.02	20.08
394.148	24.08
394.276	21.08
394.404	41.08
394.533	26.08
394.661	28.08
394.789	48.08
394.917	35.08
395.045	14.08
395.173	11.08
395.302	17.08
395.43	24.08
395.558	29.08
395.686	42.08
395.814	30.08
395.942	30.08
396.07	19.08
396.198	28.08
396.326	34.08
396.454	42.08
396.582	24.08
396.711	29.08
396.839	28.08
396.967	30.08
397.095	10.08
397.223	19.08
397.351	37.08
397.479	39.08
397.607	24.08
397.735	38.08
397.863	68.08
397.991	49.08
398.119	29.08
398.247	48.08
398.375	31.08
398.503	31.08
398.631	42.08
398.759	35.08
398.887	37.08
399.015	34.08
399.143	53.08
399.271	69.08
399.399	66.08
399.526	58.08
399.654	88.08
399.782	43.08
399.91	88.08
400.038	79.08
400.166	84.08
400.294	74.08
400.422	82.08
400.55	100.08
400.678	94.08
400.805	98.08
400.933	93.08
401.061	132.08
401.189	125.08
401.317	124.08
401.445	76.08
401.573	68.08
401.7	47.08
401.828	40.08
401.956	54.08
402.084	42.08
402.212	14.08
402.34	39.08
402.467	34.08
402.595	34.08
402.723	47.08
402.851	68.08
402.978	69.08
403.106	69.08
403.234	79.08
403.362	103.08
403.489	115.08
403.617	161.08
403.745	193.08
403.873	285.08
404	535.08
404.128	1462.08
404.256	3979.08
404.384	5148.08
404.511	5480.08
404.639	7227.08
404.767	11515.08
404.894	14681.08
405.022	5020.08
405.15	1329.08
405.277	419.08
405.405	234.08
405.533	142.08
405.66	119.08
405.788	42.08
405.916	38.08
406.043	31.08
406.171	50.08
406.299	57.08
406.426	44.08
406.554	44.08
406.681	47.08
406.809	45.08
406.937	59.08
407.064	67.08
407.192	113.08
407.319	297.08
407.447	521.08
407.574	545.08
407.702	646.08
407.83	874.08
407.957	1603.08
408.085	954.08
408.212	284.08
408.34	103.08
408.467	77.08
408.595	42.08
408.722	46.08
408.85	38.08
408.977	27.08
409.105	21.08
409.232	26.08
409.36	19.08
409.487	28.08
409.615	27.08
409.742	34.08
409.87	25.08
409.997	38.08
410.125	32.08
410.252	29.08
410.379	33.08
410.507	31.08
410.634	13.08
410.762	24.08
410.889	30.08
411.017	22.08
411.144	13.08
411.271	9.08
411.399	30.08
411.526	38.08
411.653	27.08
411.781	20.08
411.908	21.08
412.036	11.08
412.163	22.08
412.29	45.08
412.418	24.08
412.545	12.08
412.672	22.08
412.8	47.08
412.927	42.08
413.054	40.08
413.182	22.08
413.309	13.08
413.436	22.08
413.564	24.08
413.691	26.08
413.818	39.08
413.945	20.08
414.073	2.08
414.2	25.08
414.327	27.08
414.454	24.08
414.582	20.08
414.709	13.08
414.836	16.08
414.963	-3.92
415.091	23.08
415.218	16.08
415.345	35.08
415.472	15.08
415.6	11.08
415.727	22.08
415.854	33.08
415.981	21.08
416.108	23.08
416.236	21.08
416.363	23.08
416.49	11.08
416.617	39.08
416.744	28.08
416.871	36.08
416.998	21.08
417.126	25.08
417.253	18.08
417.38	34.08
417.507	26.08
417.634	29.08
417.761	21.08
417.888	26.08
418.015	20.08
418.143	43.08
418.27	34.08
418.397	24.08
418.524	25.08
418.651	21.08
418.778	22.08
