Data from LowRes_mercury_15_20_11_07_2024_HR4C61881__96__15-23-41-870.txt Node

Date: Thu Nov 07 15:23:41 EST 2024
User: crc00042
Spectrometer: HR4C6188
Trigger mode: 4
Integration Time (sec): 1.000000E-1
Scans to average: 1
Electric dark correction enabled: true
Nonlinearity correction enabled: false
Boxcar width: 0
XAxis mode: Wavelengths
Number of Pixels in Spectrum: 3648
>>>>>Begin Spectral Data<<<<<
245.66	-85.15
245.797	-85.15
245.934	-85.15
246.071	-70.15
246.208	-8.15
246.344	6.85
246.481	-0.15
246.618	-18.15
246.755	2.85
246.892	14.85
247.029	-11.15
247.165	-9.15
247.302	22.85
247.439	-0.15
247.576	8.85
247.713	-13.15
247.849	16.85
247.986	-21.15
248.123	-8.15
248.26	-3.15
248.396	18.85
248.533	-0.15
248.67	-9.15
248.806	1.85
248.943	-18.15
249.08	-18.15
249.216	24.85
249.353	-10.15
249.49	-1.15
249.626	-14.15
249.763	-4.15
249.9	2.85
250.036	9.85
250.173	12.85
250.309	2.85
250.446	8.85
250.582	6.85
250.719	-9.15
250.856	-3.15
250.992	-14.15
251.129	-1.15
251.265	-11.15
251.402	1.85
251.538	-23.15
251.675	4.85
251.811	1.85
251.948	19.85
252.084	0.85
252.221	-2.15
252.357	-2.15
252.493	32.85
252.63	1.85
252.766	14.85
252.903	3.85
253.039	4.85
253.175	-1.15
253.312	12.85
253.448	-1.15
253.585	-8.15
253.721	8.85
253.857	-20.15
253.994	2.85
254.13	-7.15
254.266	-9.15
254.403	-4.15
254.539	12.85
254.675	19.85
254.811	11.85
254.948	7.85
255.084	-3.15
255.22	-5.15
255.356	14.85
255.493	5.85
255.629	9.85
255.765	14.85
255.901	17.85
256.037	0.85
256.174	-9.15
256.31	-5.15
256.446	4.85
256.582	13.85
256.718	-4.15
256.854	4.85
256.991	-0.15
257.127	14.85
257.263	10.85
257.399	16.85
257.535	-15.15
257.671	-1.15
257.807	-0.15
257.943	-13.15
258.079	-13.15
258.215	-4.15
258.351	28.85
258.487	20.85
258.623	20.85
258.759	-22.15
258.895	10.85
259.031	-13.15
259.167	-14.15
259.303	8.85
259.439	7.85
259.575	-1.15
259.711	27.85
259.847	-9.15
259.983	9.85
260.119	-13.15
260.255	-10.15
260.391	7.85
260.527	8.85
260.663	19.85
260.799	6.85
260.934	7.85
261.07	4.85
261.206	-5.15
261.342	-10.15
261.478	7.85
261.614	-2.15
261.749	12.85
261.885	7.85
262.021	-5.15
262.157	21.85
262.293	-5.15
262.428	3.85
262.564	-2.15
262.7	10.85
262.836	2.85
262.971	14.85
263.107	-0.15
263.243	25.85
263.378	6.85
263.514	-17.15
263.65	2.85
263.785	-8.15
263.921	-26.15
264.057	-16.15
264.192	5.85
264.328	12.85
264.464	0.85
264.599	12.85
264.735	10.85
264.871	2.85
265.006	8.85
265.142	14.85
265.277	7.85
265.413	8.85
265.548	16.85
265.684	30.85
265.819	1.85
265.955	0.85
266.091	-10.15
266.226	14.85
266.362	7.85
266.497	9.85
266.633	2.85
266.768	-9.15
266.903	5.85
267.039	22.85
267.174	10.85
267.31	3.85
267.445	-12.15
267.581	7.85
267.716	4.85
267.851	10.85
267.987	27.85
268.122	22.85
268.258	-20.15
268.393	0.85
268.528	20.85
268.664	11.85
268.799	0.85
268.934	13.85
269.07	4.85
269.205	5.85
269.34	23.85
269.476	8.85
269.611	2.85
269.746	21.85
269.881	-5.15
270.017	16.85
270.152	-8.15
270.287	-5.15
270.422	19.85
270.558	-5.15
270.693	21.85
270.828	33.85
270.963	-6.15
271.098	11.85
271.234	9.85
271.369	4.85
271.504	-9.15
271.639	6.85
271.774	1.85
271.909	3.85
272.045	-11.15
272.18	3.85
272.315	-5.15
272.45	18.85
272.585	-7.15
272.72	-6.15
272.855	4.85
272.99	13.85
273.125	-10.15
273.26	3.85
273.395	-2.15
273.53	4.85
273.665	25.85
273.8	1.85
273.935	-20.15
274.07	-3.15
274.205	1.85
274.34	7.85
274.475	-3.15
274.61	31.85
274.745	0.85
274.88	30.85
275.015	-16.15
275.15	-5.15
275.285	-13.15
275.42	-3.15
275.555	10.85
275.69	2.85
275.825	4.85
275.959	26.85
276.094	-2.15
276.229	-3.15
276.364	-4.15
276.499	-5.15
276.634	-12.15
276.768	-21.15
276.903	9.85
277.038	13.85
277.173	2.85
277.308	-10.15
277.442	7.85
277.577	0.85
277.712	-14.15
277.847	-3.15
277.981	22.85
278.116	-2.15
278.251	3.85
278.386	2.85
278.52	5.85
278.655	-6.15
278.79	30.85
278.924	8.85
279.059	7.85
279.194	-7.15
279.328	17.85
279.463	15.85
279.598	22.85
279.732	6.85
279.867	15.85
280.001	14.85
280.136	-11.15
280.271	26.85
280.405	10.85
280.54	1.85
280.674	2.85
280.809	9.85
280.943	-13.15
281.078	-14.15
281.213	21.85
281.347	9.85
281.482	14.85
281.616	10.85
281.751	-1.15
281.885	9.85
282.02	1.85
282.154	7.85
282.288	12.85
282.423	-14.15
282.557	0.85
282.692	6.85
282.826	3.85
282.961	18.85
283.095	0.85
283.229	-1.15
283.364	-6.15
283.498	0.85
283.633	6.85
283.767	17.85
283.901	12.85
284.036	10.85
284.17	6.85
284.304	0.85
284.439	0.85
284.573	-8.15
284.707	8.85
284.842	-7.15
284.976	-0.15
285.11	-9.15
285.244	-2.15
285.379	34.85
285.513	-0.15
285.647	29.85
285.781	15.85
285.916	33.85
286.05	-5.15
286.184	26.85
286.318	12.85
286.453	5.85
286.587	1.85
286.721	-6.15
286.855	25.85
286.989	17.85
287.123	-10.15
287.258	5.85
287.392	-7.15
287.526	12.85
287.66	-1.15
287.794	4.85
287.928	-0.15
288.062	10.85
288.196	13.85
288.33	1.85
288.464	10.85
288.598	4.85
288.733	14.85
288.867	6.85
289.001	11.85
289.135	17.85
289.269	9.85
289.403	3.85
289.537	9.85
289.671	6.85
289.805	-6.15
289.939	16.85
290.073	7.85
290.207	4.85
290.34	4.85
290.474	21.85
290.608	18.85
290.742	1.85
290.876	-6.15
291.01	1.85
291.144	24.85
291.278	20.85
291.412	23.85
291.546	10.85
291.679	-17.15
291.813	-2.15
291.947	1.85
292.081	-17.15
292.215	4.85
292.349	25.85
292.482	24.85
292.616	19.85
292.75	2.85
292.884	9.85
293.018	6.85
293.151	-23.15
293.285	10.85
293.419	-13.15
293.553	-2.15
293.686	-1.15
293.82	5.85
293.954	18.85
294.088	19.85
294.221	1.85
294.355	1.85
294.489	-7.15
294.622	-4.15
294.756	8.85
294.89	13.85
295.023	18.85
295.157	16.85
295.291	-3.15
295.424	11.85
295.558	-5.15
295.691	2.85
295.825	10.85
295.959	-0.15
296.092	-14.15
296.226	-6.15
296.359	0.85
296.493	5.85
296.627	26.85
296.76	5.85
296.894	-2.15
297.027	8.85
297.161	-0.15
297.294	-6.15
297.428	8.85
297.561	24.85
297.695	0.85
297.828	6.85
297.962	1.85
298.095	7.85
298.229	13.85
298.362	3.85
298.495	12.85
298.629	-10.15
298.762	4.85
298.896	6.85
299.029	-6.15
299.162	0.85
299.296	-4.15
299.429	9.85
299.563	24.85
299.696	25.85
299.829	7.85
299.963	16.85
300.096	31.85
300.229	16.85
300.363	9.85
300.496	3.85
300.629	-23.15
300.763	-10.15
300.896	-7.15
301.029	14.85
301.162	5.85
301.296	-9.15
301.429	-5.15
301.562	-19.15
301.695	16.85
301.829	8.85
301.962	26.85
302.095	-3.15
302.228	-5.15
302.362	-0.15
302.495	-14.15
302.628	18.85
302.761	8.85
302.894	7.85
303.027	20.85
303.161	8.85
303.294	-18.15
303.427	4.85
303.56	2.85
303.693	-10.15
303.826	10.85
303.959	15.85
304.092	-30.15
304.225	-10.15
304.359	-8.15
304.492	17.85
304.625	2.85
304.758	14.85
304.891	-9.15
305.024	4.85
305.157	6.85
305.29	8.85
305.423	17.85
305.556	28.85
305.689	14.85
305.822	-11.15
305.955	4.85
306.088	-2.15
306.221	-9.15
306.354	10.85
306.487	-14.15
306.62	-17.15
306.752	-5.15
306.885	6.85
307.018	11.85
307.151	10.85
307.284	26.85
307.417	-10.15
307.55	13.85
307.683	6.85
307.816	27.85
307.948	11.85
308.081	16.85
308.214	37.85
308.347	26.85
308.48	2.85
308.613	0.85
308.745	21.85
308.878	-3.15
309.011	-3.15
309.144	9.85
309.277	-7.15
309.409	8.85
309.542	0.85
309.675	24.85
309.808	-2.15
309.94	7.85
310.073	0.85
310.206	13.85
310.339	32.85
310.471	4.85
310.604	17.85
310.737	-2.15
310.869	-2.15
311.002	0.85
311.135	-2.15
311.267	-3.15
311.4	-8.15
311.533	16.85
311.665	6.85
311.798	23.85
311.93	26.85
312.063	26.85
312.196	43.85
312.328	69.85
312.461	42.85
312.593	26.85
312.726	73.85
312.859	97.85
312.991	164.85
313.124	46.85
313.256	6.85
313.389	8.85
313.521	0.85
313.654	5.85
313.786	3.85
313.919	-7.15
314.051	6.85
314.184	7.85
314.316	-8.15
314.449	-13.15
314.581	1.85
314.714	3.85
314.846	16.85
314.978	2.85
315.111	-10.15
315.243	-4.15
315.376	13.85
315.508	9.85
315.641	4.85
315.773	15.85
315.905	7.85
316.038	-20.15
316.17	11.85
316.302	-5.15
316.435	20.85
316.567	5.85
316.699	22.85
316.832	4.85
316.964	13.85
317.096	-7.15
317.229	-0.15
317.361	-8.15
317.493	4.85
317.625	-6.15
317.758	1.85
317.89	23.85
318.022	-22.15
318.155	-14.15
318.287	16.85
318.419	14.85
318.551	18.85
318.683	-3.15
318.816	11.85
318.948	-7.15
319.08	-9.15
319.212	8.85
319.344	16.85
319.477	18.85
319.609	10.85
319.741	26.85
319.873	10.85
320.005	16.85
320.137	15.85
320.269	-12.15
320.401	-0.15
320.534	-13.15
320.666	-23.15
320.798	7.85
320.93	6.85
321.062	-1.15
321.194	0.85
321.326	25.85
321.458	26.85
321.59	8.85
321.722	-11.15
321.854	9.85
321.986	4.85
322.118	9.85
322.25	-14.15
322.382	5.85
322.514	-14.15
322.646	9.85
322.778	26.85
322.91	-7.15
323.042	2.85
323.174	12.85
323.306	-3.15
323.438	-15.15
323.57	2.85
323.702	1.85
323.834	10.85
323.966	-3.15
324.097	-5.15
324.229	18.85
324.361	14.85
324.493	13.85
324.625	2.85
324.757	25.85
324.889	-5.15
325.021	4.85
325.152	30.85
325.284	30.85
325.416	0.85
325.548	21.85
325.68	15.85
325.811	34.85
325.943	37.85
326.075	-0.15
326.207	5.85
326.339	23.85
326.47	30.85
326.602	12.85
326.734	12.85
326.866	20.85
326.997	-0.15
327.129	-7.15
327.261	-7.15
327.392	7.85
327.524	-9.15
327.656	10.85
327.787	28.85
327.919	15.85
328.051	18.85
328.182	32.85
328.314	17.85
328.446	13.85
328.577	40.85
328.709	16.85
328.841	1.85
328.972	-9.15
329.104	5.85
329.235	-3.15
329.367	-5.15
329.499	17.85
329.63	-1.15
329.762	-3.15
329.893	26.85
330.025	0.85
330.156	-15.15
330.288	10.85
330.419	7.85
330.551	17.85
330.683	11.85
330.814	2.85
330.946	25.85
331.077	-16.15
331.208	4.85
331.34	-14.15
331.471	6.85
331.603	2.85
331.734	-3.15
331.866	-4.15
331.997	14.85
332.129	4.85
332.26	-1.15
332.392	13.85
332.523	-3.15
332.654	-9.15
332.786	-4.15
332.917	-3.15
333.048	16.85
333.18	10.85
333.311	-7.15
333.443	20.85
333.574	7.85
333.705	21.85
333.837	30.85
333.968	114.85
334.099	248.85
334.231	190.85
334.362	47.85
334.493	32.85
334.624	38.85
334.756	17.85
334.887	8.85
335.018	-3.15
335.15	19.85
335.281	7.85
335.412	3.85
335.543	16.85
335.675	8.85
335.806	6.85
335.937	5.85
336.068	16.85
336.199	44.85
336.331	14.85
336.462	12.85
336.593	10.85
336.724	-5.15
336.855	17.85
336.986	38.85
337.118	13.85
337.249	21.85
337.38	-2.15
337.511	10.85
337.642	14.85
337.773	14.85
337.904	24.85
338.035	0.85
338.166	15.85
338.298	8.85
338.429	-1.15
338.56	20.85
338.691	26.85
338.822	20.85
338.953	24.85
339.084	24.85
339.215	19.85
339.346	0.85
339.477	12.85
339.608	21.85
339.739	12.85
339.87	13.85
340.001	5.85
340.132	27.85
340.263	20.85
340.394	25.85
340.525	16.85
340.656	0.85
340.787	10.85
340.918	9.85
341.049	16.85
341.179	8.85
341.31	4.85
341.441	-5.15
341.572	11.85
341.703	22.85
341.834	3.85
341.965	17.85
342.096	10.85
342.227	6.85
342.357	18.85
342.488	17.85
342.619	16.85
342.75	33.85
342.881	5.85
343.012	32.85
343.142	50.85
343.273	20.85
343.404	23.85
343.535	44.85
343.666	32.85
343.796	22.85
343.927	6.85
344.058	32.85
344.189	37.85
344.319	22.85
344.45	27.85
344.581	16.85
344.712	16.85
344.842	13.85
344.973	31.85
345.104	45.85
345.234	33.85
345.365	23.85
345.496	37.85
345.626	46.85
345.757	46.85
345.888	19.85
346.018	25.85
346.149	16.85
346.28	33.85
346.41	27.85
346.541	29.85
346.672	28.85
346.802	45.85
346.933	37.85
347.063	22.85
347.194	13.85
347.325	25.85
347.455	30.85
347.586	43.85
347.716	23.85
347.847	26.85
347.977	26.85
348.108	65.85
348.238	40.85
348.369	49.85
348.499	33.85
348.63	34.85
348.76	65.85
348.891	50.85
349.021	55.85
349.152	76.85
349.282	54.85
349.413	48.85
349.543	40.85
349.674	33.85
349.804	48.85
349.935	27.85
350.065	43.85
350.196	32.85
350.326	29.85
350.456	16.85
350.587	27.85
350.717	21.85
350.848	35.85
350.978	21.85
351.108	1.85
351.239	55.85
351.369	25.85
351.499	8.85
351.63	32.85
351.76	36.85
351.89	25.85
352.021	17.85
352.151	1.85
352.281	31.85
352.412	27.85
352.542	15.85
352.672	19.85
352.803	24.85
352.933	22.85
353.063	40.85
353.193	34.85
353.324	15.85
353.454	27.85
353.584	42.85
353.714	25.85
353.845	23.85
353.975	6.85
354.105	11.85
354.235	16.85
354.365	13.85
354.496	16.85
354.626	17.85
354.756	41.85
354.886	14.85
355.016	23.85
355.146	21.85
355.277	27.85
355.407	4.85
355.537	-2.15
355.667	9.85
355.797	25.85
355.927	16.85
356.057	26.85
356.187	25.85
356.318	12.85
356.448	31.85
356.578	44.85
356.708	55.85
356.838	27.85
356.968	24.85
357.098	31.85
357.228	46.85
357.358	24.85
357.488	16.85
357.618	30.85
357.748	37.85
357.878	34.85
358.008	23.85
358.138	23.85
358.268	0.85
358.398	38.85
358.528	18.85
358.658	27.85
358.788	48.85
358.918	34.85
359.048	31.85
359.178	48.85
359.308	28.85
359.438	33.85
359.568	36.85
359.698	29.85
359.827	25.85
359.957	31.85
360.087	27.85
360.217	18.85
360.347	25.85
360.477	30.85
360.607	27.85
360.737	43.85
360.866	36.85
360.996	26.85
361.126	33.85
361.256	42.85
361.386	48.85
361.516	54.85
361.645	25.85
361.775	40.85
361.905	25.85
362.035	54.85
362.165	41.85
362.294	42.85
362.424	40.85
362.554	41.85
362.684	33.85
362.813	20.85
362.943	39.85
363.073	36.85
363.203	56.85
363.332	58.85
363.462	69.85
363.592	75.85
363.721	135.85
363.851	148.85
363.981	201.85
364.111	241.85
364.24	314.85
364.37	502.85
364.5	831.85
364.629	1783.85
364.759	3836.85
364.888	6293.85
365.018	9309.85
365.148	14789.85
365.277	12885.85
365.407	4732.85
365.537	3134.85
365.666	4056.85
365.796	1802.85
365.925	791.85
366.055	762.85
366.184	1050.85
366.314	1391.85
366.444	2465.85
366.573	2104.85
366.703	631.85
366.832	188.85
366.962	109.85
367.091	102.85
367.221	83.85
367.35	35.85
367.48	96.85
367.609	57.85
367.739	43.85
367.868	25.85
367.998	50.85
368.127	54.85
368.257	58.85
368.386	56.85
368.516	46.85
368.645	44.85
368.775	56.85
368.904	47.85
369.033	29.85
369.163	35.85
369.292	51.85
369.422	53.85
369.551	48.85
369.68	28.85
369.81	41.85
369.939	33.85
370.069	31.85
370.198	29.85
370.327	26.85
370.457	38.85
370.586	51.85
370.715	29.85
370.845	21.85
370.974	44.85
371.103	55.85
371.233	51.85
371.362	52.85
371.491	42.85
371.621	57.85
371.75	39.85
371.879	34.85
372.008	46.85
372.138	56.85
372.267	55.85
372.396	54.85
372.525	24.85
372.655	10.85
372.784	32.85
372.913	26.85
373.042	55.85
373.172	44.85
373.301	21.85
373.43	16.85
373.559	12.85
373.688	32.85
373.818	36.85
373.947	40.85
374.076	14.85
374.205	29.85
374.334	25.85
374.463	13.85
374.593	28.85
374.722	30.85
374.851	45.85
374.98	8.85
375.109	12.85
375.238	20.85
375.367	51.85
375.496	20.85
375.625	20.85
375.755	30.85
375.884	38.85
376.013	36.85
376.142	13.85
376.271	19.85
376.4	30.85
376.529	26.85
376.658	22.85
376.787	20.85
376.916	25.85
377.045	18.85
377.174	18.85
377.303	30.85
377.432	36.85
377.561	31.85
377.69	20.85
377.819	36.85
377.948	13.85
378.077	13.85
378.206	5.85
378.335	26.85
378.464	10.85
378.593	33.85
378.722	13.85
378.851	35.85
378.98	45.85
379.108	23.85
379.237	-19.15
379.366	0.85
379.495	21.85
379.624	31.85
379.753	17.85
379.882	16.85
380.011	10.85
380.14	25.85
380.268	23.85
380.397	5.85
380.526	31.85
380.655	5.85
380.784	-21.15
380.913	8.85
381.041	7.85
381.17	-5.15
381.299	4.85
381.428	9.85
381.557	33.85
381.685	21.85
381.814	27.85
381.943	28.85
382.072	15.85
382.2	8.85
382.329	4.85
382.458	11.85
382.587	12.85
382.715	50.85
382.844	21.85
382.973	13.85
383.102	11.85
383.23	21.85
383.359	6.85
383.488	23.85
383.616	12.85
383.745	-3.15
383.874	5.85
384.003	5.85
384.131	14.85
384.26	-1.15
384.389	27.85
384.517	-0.15
384.646	-11.15
384.774	29.85
384.903	29.85
385.032	37.85
385.16	20.85
385.289	36.85
385.418	38.85
385.546	20.85
385.675	29.85
385.803	39.85
385.932	39.85
386.06	6.85
386.189	24.85
386.318	9.85
386.446	9.85
386.575	26.85
386.703	21.85
386.832	32.85
386.96	-10.15
387.089	30.85
387.217	6.85
387.346	10.85
387.474	26.85
387.603	19.85
387.731	32.85
387.86	28.85
387.988	12.85
388.117	37.85
388.245	29.85
388.374	31.85
388.502	18.85
388.631	6.85
388.759	5.85
388.888	23.85
389.016	9.85
389.144	8.85
389.273	13.85
389.401	12.85
389.53	7.85
389.658	41.85
389.786	24.85
389.915	10.85
390.043	1.85
390.172	26.85
390.3	50.85
390.428	40.85
390.557	22.85
390.685	42.85
390.813	49.85
390.942	42.85
391.07	18.85
391.198	12.85
391.327	9.85
391.455	8.85
391.583	41.85
391.712	34.85
391.84	32.85
391.968	29.85
392.096	8.85
392.225	18.85
392.353	31.85
392.481	31.85
392.609	34.85
392.738	25.85
392.866	30.85
392.994	17.85
393.122	32.85
393.251	10.85
393.379	12.85
393.507	7.85
393.635	13.85
393.764	33.85
393.892	45.85
394.02	39.85
394.148	13.85
394.276	29.85
394.404	28.85
394.533	35.85
394.661	24.85
394.789	45.85
394.917	42.85
395.045	18.85
395.173	0.85
395.302	14.85
395.43	17.85
395.558	43.85
395.686	44.85
395.814	38.85
395.942	10.85
396.07	23.85
396.198	30.85
396.326	39.85
396.454	50.85
396.582	26.85
396.711	40.85
396.839	40.85
396.967	35.85
397.095	17.85
397.223	23.85
397.351	47.85
397.479	35.85
397.607	24.85
397.735	47.85
397.863	39.85
397.991	34.85
398.119	42.85
398.247	44.85
398.375	59.85
398.503	45.85
398.631	55.85
398.759	77.85
398.887	55.85
399.015	52.85
399.143	59.85
399.271	70.85
399.399	77.85
399.526	78.85
399.654	82.85
399.782	62.85
399.91	86.85
400.038	100.85
400.166	72.85
400.294	100.85
400.422	92.85
400.55	107.85
400.678	98.85
400.805	132.85
400.933	111.85
401.061	126.85
401.189	115.85
401.317	149.85
401.445	116.85
401.573	77.85
401.7	41.85
401.828	48.85
401.956	61.85
402.084	53.85
402.212	53.85
402.34	39.85
402.467	42.85
402.595	40.85
402.723	41.85
402.851	72.85
402.978	58.85
403.106	84.85
403.234	70.85
403.362	118.85
403.489	127.85
403.617	146.85
403.745	193.85
403.873	271.85
404	543.85
404.128	1478.85
404.256	3935.85
404.384	5072.85
404.511	5481.85
404.639	7143.85
404.767	11417.85
404.894	14618.85
405.022	4918.85
405.15	1282.85
405.277	429.85
405.405	239.85
405.533	141.85
405.66	97.85
405.788	65.85
405.916	55.85
406.043	51.85
406.171	60.85
406.299	55.85
406.426	78.85
406.554	69.85
406.681	61.85
406.809	30.85
406.937	53.85
407.064	72.85
407.192	113.85
407.319	290.85
407.447	518.85
407.574	543.85
407.702	636.85
407.83	865.85
407.957	1591.85
408.085	917.85
408.212	285.85
408.34	122.85
408.467	53.85
408.595	27.85
408.722	50.85
408.85	44.85
408.977	11.85
409.105	47.85
409.232	33.85
409.36	35.85
409.487	33.85
409.615	36.85
409.742	46.85
409.87	33.85
409.997	42.85
410.125	48.85
410.252	55.85
410.379	25.85
410.507	29.85
410.634	21.85
410.762	35.85
410.889	50.85
411.017	35.85
411.144	37.85
411.271	21.85
411.399	26.85
411.526	28.85
411.653	23.85
411.781	37.85
411.908	17.85
412.036	22.85
412.163	26.85
412.29	37.85
412.418	43.85
412.545	39.85
412.672	13.85
412.8	38.85
412.927	25.85
413.054	37.85
413.182	31.85
413.309	33.85
413.436	18.85
413.564	24.85
413.691	13.85
413.818	41.85
413.945	27.85
414.073	31.85
414.2	40.85
414.327	39.85
414.454	32.85
414.582	38.85
414.709	15.85
414.836	16.85
414.963	25.85
415.091	25.85
415.218	7.85
415.345	23.85
415.472	18.85
415.6	5.85
415.727	36.85
415.854	42.85
415.981	31.85
416.108	18.85
416.236	30.85
416.363	31.85
416.49	13.85
416.617	44.85
416.744	40.85
416.871	29.85
416.998	34.85
417.126	40.85
417.253	28.85
417.38	21.85
417.507	23.85
417.634	44.85
417.761	49.85
417.888	23.85
418.015	23.85
418.143	24.85
418.27	50.85
418.397	36.85
418.524	39.85
418.651	33.85
418.778	46.85
418.905	59.85
419.032	41.85
419.159	21.85
