Data from LowRes_mercury_15_20_11_07_2024_HR4C61881__85__15-23-40-770.txt Node

Date: Thu Nov 07 15:23:40 EST 2024
User: crc00042
Spectrometer: HR4C6188
Trigger mode: 4
Integration Time (sec): 1.000000E-1
Scans to average: 1
Electric dark correction enabled: true
Nonlinearity correction enabled: false
Boxcar width: 0
XAxis mode: Wavelengths
Number of Pixels in Spectrum: 3648
>>>>>Begin Spectral Data<<<<<
245.66	-76.38
245.797	-76.38
245.934	-76.38
246.071	-68.38
246.208	-10.38
246.344	-2.38
246.481	-4.38
246.618	-8.38
246.755	10.62
246.892	5.62
247.029	-8.38
247.165	-4.38
247.302	0.62
247.439	3.62
247.576	23.62
247.713	-23.38
247.849	25.62
247.986	-18.38
248.123	-1.38
248.26	-24.38
248.396	16.62
248.533	-10.38
248.67	-22.38
248.806	17.62
248.943	-9.38
249.08	-11.38
249.216	13.62
249.353	-27.38
249.49	-3.38
249.626	-4.38
249.763	-18.38
249.9	-13.38
250.036	26.62
250.173	-11.38
250.309	7.62
250.446	-9.38
250.582	-2.38
250.719	-10.38
250.856	-4.38
250.992	-0.38
251.129	-25.38
251.265	-1.38
251.402	8.62
251.538	1.62
251.675	4.62
251.811	10.62
251.948	11.62
252.084	2.62
252.221	-1.38
252.357	-4.38
252.493	16.62
252.63	1.62
252.766	17.62
252.903	11.62
253.039	-12.38
253.175	-1.38
253.312	8.62
253.448	-0.38
253.585	-19.38
253.721	13.62
253.857	-0.38
253.994	10.62
254.13	0.62
254.266	15.62
254.403	-4.38
254.539	-1.38
254.675	12.62
254.811	6.62
254.948	5.62
255.084	9.62
255.22	-6.38
255.356	15.62
255.493	-0.38
255.629	6.62
255.765	4.62
255.901	7.62
256.037	4.62
256.174	24.62
256.31	-12.38
256.446	-7.38
256.582	14.62
256.718	1.62
256.854	14.62
256.991	2.62
257.127	3.62
257.263	7.62
257.399	-6.38
257.535	-0.38
257.671	1.62
257.807	0.62
257.943	-16.38
258.079	-16.38
258.215	6.62
258.351	11.62
258.487	20.62
258.623	22.62
258.759	1.62
258.895	-0.38
259.031	-17.38
259.167	-6.38
259.303	13.62
259.439	8.62
259.575	6.62
259.711	2.62
259.847	-11.38
259.983	10.62
260.119	1.62
260.255	-6.38
260.391	-3.38
260.527	7.62
260.663	22.62
260.799	-0.38
260.934	-18.38
261.07	-5.38
261.206	-0.38
261.342	-18.38
261.478	18.62
261.614	18.62
261.749	2.62
261.885	-8.38
262.021	5.62
262.157	17.62
262.293	5.62
262.428	2.62
262.564	4.62
262.7	11.62
262.836	0.62
262.971	15.62
263.107	7.62
263.243	27.62
263.378	9.62
263.514	-9.38
263.65	-3.38
263.785	-25.38
263.921	-15.38
264.057	-8.38
264.192	17.62
264.328	33.62
264.464	-13.38
264.599	8.62
264.735	22.62
264.871	0.62
265.006	11.62
265.142	7.62
265.277	5.62
265.413	9.62
265.548	8.62
265.684	-2.38
265.819	-4.38
265.955	-1.38
266.091	-8.38
266.226	-24.38
266.362	5.62
266.497	10.62
266.633	-8.38
266.768	2.62
266.903	16.62
267.039	14.62
267.174	6.62
267.31	5.62
267.445	-3.38
267.581	6.62
267.716	18.62
267.851	3.62
267.987	12.62
268.122	12.62
268.258	3.62
268.393	-10.38
268.528	-1.38
268.664	-4.38
268.799	0.62
268.934	3.62
269.07	4.62
269.205	17.62
269.34	17.62
269.476	5.62
269.611	-19.38
269.746	12.62
269.881	32.62
270.017	22.62
270.152	-18.38
270.287	8.62
270.422	28.62
270.558	9.62
270.693	8.62
270.828	11.62
270.963	7.62
271.098	-17.38
271.234	4.62
271.369	16.62
271.504	6.62
271.639	-19.38
271.774	4.62
271.909	-3.38
272.045	-8.38
272.18	-3.38
272.315	1.62
272.45	16.62
272.585	-27.38
272.72	-24.38
272.855	24.62
272.99	3.62
273.125	-14.38
273.26	-12.38
273.395	-6.38
273.53	-23.38
273.665	5.62
273.8	-1.38
273.935	3.62
274.07	15.62
274.205	27.62
274.34	3.62
274.475	-15.38
274.61	23.62
274.745	17.62
274.88	20.62
275.015	-12.38
275.15	-4.38
275.285	9.62
275.42	-7.38
275.555	13.62
275.69	14.62
275.825	15.62
275.959	8.62
276.094	-2.38
276.229	-0.38
276.364	1.62
276.499	-1.38
276.634	-4.38
276.768	6.62
276.903	14.62
277.038	12.62
277.173	10.62
277.308	14.62
277.442	-2.38
277.577	-5.38
277.712	-0.38
277.847	4.62
277.981	5.62
278.116	-9.38
278.251	13.62
278.386	-9.38
278.52	15.62
278.655	6.62
278.79	3.62
278.924	7.62
279.059	27.62
279.194	-7.38
279.328	47.62
279.463	19.62
279.598	32.62
279.732	16.62
279.867	-10.38
280.001	17.62
280.136	17.62
280.271	-9.38
280.405	7.62
280.54	6.62
280.674	-13.38
280.809	26.62
280.943	21.62
281.078	0.62
281.213	7.62
281.347	6.62
281.482	13.62
281.616	-6.38
281.751	-0.38
281.885	-23.38
282.02	3.62
282.154	16.62
282.288	12.62
282.423	-5.38
282.557	-8.38
282.692	17.62
282.826	5.62
282.961	6.62
283.095	7.62
283.229	2.62
283.364	-6.38
283.498	-13.38
283.633	12.62
283.767	9.62
283.901	15.62
284.036	10.62
284.17	8.62
284.304	4.62
284.439	-0.38
284.573	19.62
284.707	30.62
284.842	-13.38
284.976	-0.38
285.11	-12.38
285.244	-10.38
285.379	53.62
285.513	6.62
285.647	15.62
285.781	-8.38
285.916	16.62
286.05	-6.38
286.184	26.62
286.318	-4.38
286.453	11.62
286.587	-15.38
286.721	2.62
286.855	4.62
286.989	17.62
287.123	15.62
287.258	1.62
287.392	-2.38
287.526	8.62
287.66	8.62
287.794	9.62
287.928	20.62
288.062	5.62
288.196	1.62
288.33	-6.38
288.464	21.62
288.598	15.62
288.733	-2.38
288.867	22.62
289.001	13.62
289.135	19.62
289.269	-7.38
289.403	2.62
289.537	14.62
289.671	20.62
289.805	-15.38
289.939	-11.38
290.073	-6.38
290.207	28.62
290.34	2.62
290.474	10.62
290.608	22.62
290.742	-3.38
290.876	-7.38
291.01	10.62
291.144	20.62
291.278	15.62
291.412	-1.38
291.546	9.62
291.679	-8.38
291.813	9.62
291.947	7.62
292.081	3.62
292.215	5.62
292.349	19.62
292.482	26.62
292.616	-8.38
292.75	5.62
292.884	2.62
293.018	8.62
293.151	3.62
293.285	15.62
293.419	-3.38
293.553	-5.38
293.686	-13.38
293.82	10.62
293.954	27.62
294.088	31.62
294.221	2.62
294.355	2.62
294.489	8.62
294.622	4.62
294.756	-2.38
294.89	-2.38
295.023	18.62
295.157	14.62
295.291	20.62
295.424	11.62
295.558	-8.38
295.691	-18.38
295.825	-2.38
295.959	11.62
296.092	-3.38
296.226	13.62
296.359	17.62
296.493	-1.38
296.627	-0.38
296.76	1.62
296.894	1.62
297.027	16.62
297.161	-3.38
297.294	-20.38
297.428	-8.38
297.561	20.62
297.695	-16.38
297.828	9.62
297.962	-6.38
298.095	10.62
298.229	7.62
298.362	-3.38
298.495	-1.38
298.629	-13.38
298.762	22.62
298.896	-10.38
299.029	-5.38
299.162	11.62
299.296	1.62
299.429	6.62
299.563	-23.38
299.696	13.62
299.829	1.62
299.963	18.62
300.096	18.62
300.229	5.62
300.363	-0.38
300.496	4.62
300.629	-9.38
300.763	-14.38
300.896	13.62
301.029	12.62
301.162	-2.38
301.296	-16.38
301.429	6.62
301.562	-5.38
301.695	21.62
301.829	11.62
301.962	16.62
302.095	2.62
302.228	-9.38
302.362	0.62
302.495	-13.38
302.628	-0.38
302.761	11.62
302.894	5.62
303.027	24.62
303.161	-0.38
303.294	11.62
303.427	15.62
303.56	14.62
303.693	6.62
303.826	-10.38
303.959	-13.38
304.092	-13.38
304.225	-1.38
304.359	-3.38
304.492	0.62
304.625	-1.38
304.758	3.62
304.891	-13.38
305.024	-15.38
305.157	-0.38
305.29	5.62
305.423	10.62
305.556	7.62
305.689	19.62
305.822	-23.38
305.955	1.62
306.088	4.62
306.221	5.62
306.354	-3.38
306.487	-0.38
306.62	-6.38
306.752	-1.38
306.885	7.62
307.018	7.62
307.151	18.62
307.284	24.62
307.417	2.62
307.55	9.62
307.683	4.62
307.816	6.62
307.948	10.62
308.081	18.62
308.214	28.62
308.347	15.62
308.48	3.62
308.613	14.62
308.745	6.62
308.878	-8.38
309.011	-0.38
309.144	24.62
309.277	2.62
309.409	24.62
309.542	-0.38
309.675	24.62
309.808	0.62
309.94	34.62
310.073	-4.38
310.206	9.62
310.339	12.62
310.471	-1.38
310.604	26.62
310.737	6.62
310.869	14.62
311.002	0.62
311.135	-13.38
311.267	-7.38
311.4	-1.38
311.533	31.62
311.665	1.62
311.798	-9.38
311.93	11.62
312.063	35.62
312.196	45.62
312.328	95.62
312.461	68.62
312.593	35.62
312.726	52.62
312.859	101.62
312.991	152.62
313.124	40.62
313.256	34.62
313.389	26.62
313.521	-14.38
313.654	12.62
313.786	-8.38
313.919	-0.38
314.051	-5.38
314.184	12.62
314.316	8.62
314.449	9.62
314.581	-7.38
314.714	11.62
314.846	9.62
314.978	-8.38
315.111	-5.38
315.243	-2.38
315.376	13.62
315.508	17.62
315.641	3.62
315.773	12.62
315.905	10.62
316.038	-9.38
316.17	8.62
316.302	22.62
316.435	9.62
316.567	-8.38
316.699	11.62
316.832	-9.38
316.964	-14.38
317.096	-8.38
317.229	-5.38
317.361	-12.38
317.493	-2.38
317.625	-12.38
317.758	14.62
317.89	21.62
318.022	1.62
318.155	-16.38
318.287	5.62
318.419	0.62
318.551	5.62
318.683	1.62
318.816	2.62
318.948	-7.38
319.08	-14.38
319.212	-6.38
319.344	11.62
319.477	3.62
319.609	17.62
319.741	27.62
319.873	1.62
320.005	3.62
320.137	8.62
320.269	26.62
320.401	3.62
320.534	-6.38
320.666	-22.38
320.798	-11.38
320.93	-7.38
321.062	-21.38
321.194	-5.38
321.326	-3.38
321.458	16.62
321.59	2.62
321.722	-18.38
321.854	2.62
321.986	1.62
322.118	-6.38
322.25	-1.38
322.382	4.62
322.514	1.62
322.646	-9.38
322.778	10.62
322.91	-11.38
323.042	9.62
323.174	3.62
323.306	15.62
323.438	-10.38
323.57	3.62
323.702	-24.38
323.834	-10.38
323.966	-17.38
324.097	-3.38
324.229	17.62
324.361	25.62
324.493	0.62
324.625	-2.38
324.757	20.62
324.889	14.62
325.021	12.62
325.152	24.62
325.284	16.62
325.416	-9.38
325.548	29.62
325.68	5.62
325.811	28.62
325.943	9.62
326.075	-6.38
326.207	11.62
326.339	0.62
326.47	8.62
326.602	29.62
326.734	26.62
326.866	11.62
326.997	10.62
327.129	0.62
327.261	-5.38
327.392	8.62
327.524	-9.38
327.656	9.62
327.787	5.62
327.919	5.62
328.051	10.62
328.182	26.62
328.314	45.62
328.446	3.62
328.577	35.62
328.709	11.62
328.841	-18.38
328.972	1.62
329.104	-4.38
329.235	1.62
329.367	14.62
329.499	9.62
329.63	16.62
329.762	8.62
329.893	22.62
330.025	7.62
330.156	-6.38
330.288	18.62
330.419	20.62
330.551	12.62
330.683	9.62
330.814	12.62
330.946	5.62
331.077	-1.38
331.208	0.62
331.34	7.62
331.471	-2.38
331.603	18.62
331.734	-6.38
331.866	1.62
331.997	1.62
332.129	10.62
332.26	5.62
332.392	19.62
332.523	-7.38
332.654	-12.38
332.786	6.62
332.917	18.62
333.048	23.62
333.18	22.62
333.311	-8.38
333.443	-1.38
333.574	15.62
333.705	38.62
333.837	41.62
333.968	114.62
334.099	246.62
334.231	210.62
334.362	68.62
334.493	22.62
334.624	34.62
334.756	29.62
334.887	19.62
335.018	9.62
335.15	25.62
335.281	14.62
335.412	29.62
335.543	18.62
335.675	23.62
335.806	2.62
335.937	7.62
336.068	5.62
336.199	26.62
336.331	1.62
336.462	11.62
336.593	32.62
336.724	-3.38
336.855	12.62
336.986	20.62
337.118	18.62
337.249	15.62
337.38	21.62
337.511	26.62
337.642	23.62
337.773	2.62
337.904	15.62
338.035	7.62
338.166	18.62
338.298	-12.38
338.429	2.62
338.56	34.62
338.691	48.62
338.822	30.62
338.953	26.62
339.084	18.62
339.215	21.62
339.346	18.62
339.477	21.62
339.608	23.62
339.739	1.62
339.87	16.62
340.001	23.62
340.132	14.62
340.263	7.62
340.394	13.62
340.525	22.62
340.656	4.62
340.787	-11.38
340.918	21.62
341.049	14.62
341.179	1.62
341.31	13.62
341.441	17.62
341.572	22.62
341.703	14.62
341.834	21.62
341.965	43.62
342.096	7.62
342.227	25.62
342.357	17.62
342.488	8.62
342.619	16.62
342.75	14.62
342.881	16.62
343.012	27.62
343.142	46.62
343.273	16.62
343.404	15.62
343.535	28.62
343.666	36.62
343.796	21.62
343.927	17.62
344.058	30.62
344.189	40.62
344.319	28.62
344.45	35.62
344.581	20.62
344.712	5.62
344.842	33.62
344.973	15.62
345.104	27.62
345.234	25.62
345.365	21.62
345.496	23.62
345.626	25.62
345.757	40.62
345.888	16.62
346.018	42.62
346.149	36.62
346.28	34.62
346.41	26.62
346.541	27.62
346.672	11.62
346.802	29.62
346.933	24.62
347.063	29.62
347.194	21.62
347.325	31.62
347.455	35.62
347.586	32.62
347.716	20.62
347.847	29.62
347.977	27.62
348.108	44.62
348.238	64.62
348.369	39.62
348.499	51.62
348.63	42.62
348.76	53.62
348.891	58.62
349.021	66.62
349.152	38.62
349.282	41.62
349.413	39.62
349.543	59.62
349.674	44.62
349.804	44.62
349.935	36.62
350.065	30.62
350.196	24.62
350.326	29.62
350.456	16.62
350.587	36.62
350.717	27.62
350.848	17.62
350.978	17.62
351.108	10.62
351.239	34.62
351.369	30.62
351.499	34.62
351.63	35.62
351.76	18.62
351.89	28.62
352.021	27.62
352.151	28.62
352.281	25.62
352.412	22.62
352.542	22.62
352.672	16.62
352.803	12.62
352.933	16.62
353.063	20.62
353.193	27.62
353.324	15.62
353.454	38.62
353.584	15.62
353.714	16.62
353.845	18.62
353.975	9.62
354.105	18.62
354.235	18.62
354.365	-0.38
354.496	12.62
354.626	16.62
354.756	32.62
354.886	23.62
355.016	33.62
355.146	26.62
355.277	9.62
355.407	4.62
355.537	13.62
355.667	15.62
355.797	21.62
355.927	32.62
356.057	39.62
356.187	4.62
356.318	19.62
356.448	18.62
356.578	29.62
356.708	34.62
356.838	51.62
356.968	35.62
357.098	38.62
357.228	37.62
357.358	36.62
357.488	21.62
357.618	57.62
357.748	41.62
357.878	30.62
358.008	29.62
358.138	42.62
358.268	19.62
358.398	30.62
358.528	1.62
358.658	28.62
358.788	24.62
358.918	40.62
359.048	14.62
359.178	33.62
359.308	41.62
359.438	47.62
359.568	42.62
359.698	37.62
359.827	30.62
359.957	33.62
360.087	31.62
360.217	33.62
360.347	46.62
360.477	41.62
360.607	20.62
360.737	34.62
360.866	35.62
360.996	19.62
361.126	12.62
361.256	30.62
361.386	57.62
361.516	38.62
361.645	18.62
361.775	32.62
361.905	10.62
362.035	14.62
362.165	30.62
362.294	45.62
362.424	39.62
362.554	42.62
362.684	28.62
362.813	48.62
362.943	56.62
363.073	72.62
363.203	46.62
363.332	91.62
363.462	72.62
363.592	97.62
363.721	110.62
363.851	149.62
363.981	200.62
364.111	245.62
364.24	316.62
364.37	490.62
364.5	875.62
364.629	1828.62
364.759	3867.62
364.888	6338.62
365.018	9451.62
365.148	14823.62
365.277	12978.62
365.407	4802.62
365.537	3167.62
365.666	4053.62
365.796	1844.62
365.925	807.62
366.055	783.62
366.184	1045.62
366.314	1386.62
366.444	2479.62
366.573	2111.62
366.703	673.62
366.832	219.62
366.962	127.62
367.091	85.62
367.221	82.62
367.35	47.62
367.48	91.62
367.609	49.62
367.739	57.62
367.868	34.62
367.998	42.62
368.127	43.62
368.257	63.62
368.386	61.62
368.516	57.62
368.645	49.62
368.775	70.62
368.904	28.62
369.033	48.62
369.163	30.62
369.292	45.62
369.422	49.62
369.551	48.62
369.68	31.62
369.81	42.62
369.939	41.62
370.069	62.62
370.198	45.62
370.327	37.62
370.457	41.62
370.586	60.62
370.715	16.62
370.845	30.62
370.974	45.62
371.103	65.62
371.233	51.62
371.362	43.62
371.491	32.62
371.621	58.62
371.75	58.62
371.879	40.62
372.008	53.62
372.138	62.62
372.267	52.62
372.396	66.62
372.525	40.62
372.655	31.62
372.784	37.62
372.913	32.62
373.042	25.62
373.172	51.62
373.301	7.62
373.43	2.62
373.559	5.62
373.688	16.62
373.818	28.62
373.947	31.62
374.076	9.62
374.205	30.62
374.334	9.62
374.463	15.62
374.593	38.62
374.722	40.62
374.851	32.62
374.98	6.62
375.109	13.62
375.238	30.62
375.367	49.62
375.496	10.62
375.625	-2.38
375.755	49.62
375.884	46.62
376.013	11.62
376.142	11.62
376.271	25.62
376.4	20.62
376.529	38.62
376.658	28.62
376.787	23.62
376.916	35.62
377.045	18.62
377.174	26.62
377.303	22.62
377.432	27.62
377.561	40.62
377.69	32.62
377.819	38.62
377.948	6.62
378.077	15.62
378.206	0.62
378.335	11.62
378.464	12.62
378.593	27.62
378.722	13.62
378.851	30.62
378.98	50.62
379.108	15.62
379.237	-2.38
379.366	33.62
379.495	31.62
379.624	34.62
379.753	37.62
379.882	20.62
380.011	7.62
380.14	11.62
380.268	14.62
380.397	14.62
380.526	37.62
380.655	15.62
380.784	-2.38
380.913	14.62
381.041	5.62
381.17	-2.38
381.299	-0.38
381.428	26.62
381.557	28.62
381.685	17.62
381.814	10.62
381.943	11.62
382.072	-1.38
382.2	9.62
382.329	20.62
382.458	24.62
382.587	44.62
382.715	36.62
382.844	24.62
382.973	17.62
383.102	20.62
383.23	20.62
383.359	6.62
383.488	36.62
383.616	17.62
383.745	-1.38
383.874	15.62
384.003	14.62
384.131	-1.38
384.26	14.62
384.389	19.62
384.517	-9.38
384.646	8.62
384.774	18.62
384.903	37.62
385.032	34.62
385.16	28.62
385.289	18.62
385.418	26.62
385.546	19.62
385.675	23.62
385.803	26.62
385.932	28.62
386.06	0.62
386.189	18.62
386.318	19.62
386.446	4.62
386.575	24.62
386.703	26.62
386.832	27.62
386.96	2.62
387.089	49.62
387.217	44.62
387.346	11.62
387.474	16.62
387.603	29.62
387.731	19.62
387.86	38.62
387.988	23.62
388.117	29.62
388.245	28.62
388.374	10.62
388.502	34.62
388.631	9.62
388.759	21.62
388.888	26.62
389.016	17.62
389.144	22.62
389.273	30.62
389.401	5.62
389.53	-3.38
389.658	25.62
389.786	24.62
389.915	4.62
390.043	-1.38
390.172	28.62
390.3	35.62
390.428	50.62
390.557	11.62
390.685	33.62
390.813	45.62
390.942	40.62
391.07	15.62
391.198	16.62
391.327	13.62
391.455	16.62
391.583	37.62
391.712	26.62
391.84	32.62
391.968	-13.38
392.096	18.62
392.225	14.62
392.353	17.62
392.481	11.62
392.609	38.62
392.738	26.62
392.866	26.62
392.994	15.62
393.122	42.62
393.251	3.62
393.379	6.62
393.507	3.62
393.635	19.62
393.764	33.62
393.892	25.62
394.02	35.62
394.148	26.62
394.276	33.62
394.404	47.62
394.533	5.62
394.661	20.62
394.789	46.62
394.917	49.62
395.045	11.62
395.173	17.62
395.302	30.62
395.43	31.62
395.558	42.62
395.686	14.62
395.814	20.62
395.942	10.62
396.07	50.62
396.198	32.62
396.326	49.62
396.454	30.62
396.582	38.62
396.711	30.62
396.839	30.62
396.967	16.62
397.095	-2.38
397.223	33.62
397.351	22.62
397.479	36.62
397.607	30.62
397.735	41.62
397.863	40.62
397.991	59.62
398.119	34.62
398.247	29.62
398.375	60.62
398.503	40.62
398.631	37.62
398.759	59.62
398.887	46.62
399.015	39.62
399.143	47.62
399.271	64.62
399.399	79.62
399.526	54.62
399.654	71.62
399.782	60.62
399.91	104.62
400.038	98.62
400.166	74.62
400.294	92.62
400.422	73.62
400.55	118.62
400.678	112.62
400.805	112.62
400.933	130.62
401.061	120.62
401.189	125.62
401.317	156.62
401.445	116.62
401.573	75.62
401.7	62.62
401.828	28.62
401.956	64.62
402.084	36.62
402.212	46.62
402.34	47.62
402.467	50.62
402.595	46.62
402.723	73.62
402.851	60.62
402.978	56.62
403.106	79.62
403.234	75.62
403.362	120.62
403.489	132.62
403.617	153.62
403.745	215.62
403.873	294.62
404	567.62
404.128	1471.62
404.256	3944.62
404.384	5156.62
404.511	5530.62
404.639	7250.62
404.767	11482.62
404.894	14661.62
405.022	4915.62
405.15	1305.62
405.277	453.62
405.405	250.62
405.533	122.62
405.66	100.62
405.788	73.62
405.916	68.62
406.043	54.62
406.171	56.62
406.299	51.62
406.426	82.62
406.554	70.62
406.681	73.62
406.809	55.62
406.937	62.62
407.064	55.62
407.192	128.62
407.319	291.62
407.447	537.62
407.574	527.62
407.702	642.62
407.83	873.62
407.957	1620.62
408.085	925.62
408.212	279.62
408.34	105.62
408.467	65.62
408.595	46.62
408.722	52.62
408.85	54.62
408.977	13.62
409.105	39.62
409.232	46.62
409.36	37.62
409.487	32.62
409.615	23.62
409.742	44.62
409.87	27.62
409.997	42.62
410.125	35.62
410.252	39.62
410.379	26.62
410.507	32.62
410.634	34.62
410.762	42.62
410.889	49.62
411.017	19.62
411.144	51.62
411.271	27.62
411.399	37.62
411.526	31.62
411.653	34.62
411.781	37.62
411.908	30.62
412.036	20.62
412.163	26.62
412.29	31.62
412.418	31.62
412.545	31.62
412.672	18.62
412.8	46.62
412.927	43.62
413.054	51.62
413.182	36.62
413.309	13.62
413.436	10.62
413.564	25.62
413.691	33.62
413.818	33.62
413.945	15.62
414.073	31.62
414.2	24.62
414.327	40.62
414.454	44.62
414.582	41.62
414.709	36.62
414.836	23.62
414.963	28.62
415.091	29.62
415.218	28.62
415.345	33.62
415.472	33.62
415.6	28.62
415.727	24.62
415.854	34.62
415.981	34.62
416.108	28.62
416.236	24.62
416.363	31.62
416.49	27.62
416.617	36.62
416.744	37.62
416.871	23.62
416.998	23.62
417.126	45.62
417.253	28.62
417.38	35.62
417.507	30.62
417.634	44.62
417.761	29.62
417.888	39.62
418.015	34.62
418.143	51.62
418.27	45.62
418.397	36.62
418.524	32.62
418.651	40.62
418.778	39.62
418.905	62.62
