Data from LowRes_mercury_15_20_11_07_2024_HR4C61881__83__15-23-40-570.txt Node

Date: Thu Nov 07 15:23:40 EST 2024
User: crc00042
Spectrometer: HR4C6188
Trigger mode: 4
Integration Time (sec): 1.000000E-1
Scans to average: 1
Electric dark correction enabled: true
Nonlinearity correction enabled: false
Boxcar width: 0
XAxis mode: Wavelengths
Number of Pixels in Spectrum: 3648
>>>>>Begin Spectral Data<<<<<
245.66	-64.85
245.797	-64.85
245.934	-64.85
246.071	-74.85
246.208	10.15
246.344	3.15
246.481	-18.85
246.618	-10.85
246.755	14.15
246.892	-7.85
247.029	-3.85
247.165	-6.85
247.302	20.15
247.439	-8.85
247.576	1.15
247.713	-10.85
247.849	23.15
247.986	6.15
248.123	-3.85
248.26	15.15
248.396	35.15
248.533	14.15
248.67	-1.85
248.806	-4.85
248.943	-6.85
249.08	3.15
249.216	-3.85
249.353	-22.85
249.49	1.15
249.626	4.15
249.763	9.15
249.9	-7.85
250.036	-0.85
250.173	-7.85
250.309	-6.85
250.446	-1.85
250.582	15.15
250.719	13.15
250.856	-8.85
250.992	-23.85
251.129	-7.85
251.265	-14.85
251.402	-1.85
251.538	-4.85
251.675	7.15
251.811	2.15
251.948	30.15
252.084	8.15
252.221	-9.85
252.357	6.15
252.493	33.15
252.63	-9.85
252.766	20.15
252.903	-19.85
253.039	7.15
253.175	-13.85
253.312	-10.85
253.448	3.15
253.585	-3.85
253.721	8.15
253.857	-0.85
253.994	18.15
254.13	1.15
254.266	-20.85
254.403	-4.85
254.539	3.15
254.675	7.15
254.811	8.15
254.948	10.15
255.084	-3.85
255.22	-8.85
255.356	0.15
255.493	3.15
255.629	11.15
255.765	14.15
255.901	27.15
256.037	1.15
256.174	14.15
256.31	-6.85
256.446	5.15
256.582	-8.85
256.718	11.15
256.854	14.15
256.991	-6.85
257.127	7.15
257.263	4.15
257.399	14.15
257.535	-4.85
257.671	8.15
257.807	2.15
257.943	-5.85
258.079	-9.85
258.215	-7.85
258.351	-0.85
258.487	-2.85
258.623	4.15
258.759	-13.85
258.895	8.15
259.031	14.15
259.167	-26.85
259.303	11.15
259.439	1.15
259.575	7.15
259.711	5.15
259.847	-12.85
259.983	1.15
260.119	-3.85
260.255	4.15
260.391	2.15
260.527	28.15
260.663	22.15
260.799	5.15
260.934	-5.85
261.07	-4.85
261.206	-18.85
261.342	-5.85
261.478	24.15
261.614	2.15
261.749	9.15
261.885	-10.85
262.021	5.15
262.157	25.15
262.293	17.15
262.428	-9.85
262.564	8.15
262.7	9.15
262.836	-6.85
262.971	-3.85
263.107	-4.85
263.243	9.15
263.378	0.15
263.514	-15.85
263.65	-0.85
263.785	-14.85
263.921	2.15
264.057	9.15
264.192	-0.85
264.328	11.15
264.464	-3.85
264.599	-0.85
264.735	30.15
264.871	-0.85
265.006	20.15
265.142	-1.85
265.277	5.15
265.413	10.15
265.548	18.15
265.684	22.15
265.819	0.15
265.955	-20.85
266.091	7.15
266.226	-4.85
266.362	1.15
266.497	4.15
266.633	2.15
266.768	-13.85
266.903	-3.85
267.039	-7.85
267.174	19.15
267.31	-11.85
267.445	-7.85
267.581	9.15
267.716	18.15
267.851	3.15
267.987	8.15
268.122	8.15
268.258	3.15
268.393	-1.85
268.528	13.15
268.664	-2.85
268.799	-10.85
268.934	-7.85
269.07	-9.85
269.205	13.15
269.34	19.15
269.476	6.15
269.611	-23.85
269.746	6.15
269.881	10.15
270.017	1.15
270.152	-3.85
270.287	10.15
270.422	28.15
270.558	9.15
270.693	7.15
270.828	9.15
270.963	-1.85
271.098	7.15
271.234	10.15
271.369	18.15
271.504	6.15
271.639	-14.85
271.774	-8.85
271.909	-24.85
272.045	-7.85
272.18	-18.85
272.315	-2.85
272.45	8.15
272.585	-0.85
272.72	-4.85
272.855	18.15
272.99	18.15
273.125	-10.85
273.26	-20.85
273.395	-16.85
273.53	-4.85
273.665	11.15
273.8	-16.85
273.935	8.15
274.07	6.15
274.205	20.15
274.34	-4.85
274.475	-22.85
274.61	-0.85
274.745	-7.85
274.88	16.15
275.015	-23.85
275.15	8.15
275.285	16.15
275.42	-27.85
275.555	18.15
275.69	5.15
275.825	-0.85
275.959	7.15
276.094	1.15
276.229	-9.85
276.364	-6.85
276.499	6.15
276.634	12.15
276.768	1.15
276.903	-5.85
277.038	25.15
277.173	11.15
277.308	-2.85
277.442	0.15
277.577	-6.85
277.712	-5.85
277.847	5.15
277.981	2.15
278.116	-15.85
278.251	5.15
278.386	-3.85
278.52	3.15
278.655	6.15
278.79	-5.85
278.924	-6.85
279.059	4.15
279.194	-8.85
279.328	12.15
279.463	22.15
279.598	32.15
279.732	2.15
279.867	3.15
280.001	9.15
280.136	7.15
280.271	7.15
280.405	9.15
280.54	15.15
280.674	-2.85
280.809	12.15
280.943	18.15
281.078	8.15
281.213	29.15
281.347	2.15
281.482	10.15
281.616	15.15
281.751	0.15
281.885	-21.85
282.02	-11.85
282.154	9.15
282.288	-3.85
282.423	-2.85
282.557	-2.85
282.692	6.15
282.826	12.15
282.961	27.15
283.095	14.15
283.229	7.15
283.364	-5.85
283.498	-10.85
283.633	0.15
283.767	-11.85
283.901	-11.85
284.036	3.15
284.17	-10.85
284.304	-11.85
284.439	13.15
284.573	9.15
284.707	26.15
284.842	-7.85
284.976	-6.85
285.11	-10.85
285.244	14.15
285.379	54.15
285.513	-9.85
285.647	3.15
285.781	-0.85
285.916	11.15
286.05	-3.85
286.184	25.15
286.318	4.15
286.453	-11.85
286.587	-20.85
286.721	-21.85
286.855	5.15
286.989	16.15
287.123	-9.85
287.258	-9.85
287.392	3.15
287.526	-2.85
287.66	-11.85
287.794	5.15
287.928	13.15
288.062	23.15
288.196	-4.85
288.33	7.15
288.464	2.15
288.598	13.15
288.733	11.15
288.867	14.15
289.001	12.15
289.135	10.15
289.269	-13.85
289.403	-5.85
289.537	1.15
289.671	7.15
289.805	-17.85
289.939	0.15
290.073	-5.85
290.207	17.15
290.34	-6.85
290.474	4.15
290.608	2.15
290.742	1.15
290.876	-14.85
291.01	-8.85
291.144	23.15
291.278	20.15
291.412	-2.85
291.546	12.15
291.679	-1.85
291.813	-3.85
291.947	-1.85
292.081	-1.85
292.215	15.15
292.349	30.15
292.482	33.15
292.616	5.15
292.75	-1.85
292.884	-3.85
293.018	-11.85
293.151	-16.85
293.285	3.15
293.419	-7.85
293.553	16.15
293.686	8.15
293.82	-15.85
293.954	10.15
294.088	22.15
294.221	0.15
294.355	0.15
294.489	-7.85
294.622	-19.85
294.756	-7.85
294.89	13.15
295.023	0.15
295.157	7.15
295.291	4.15
295.424	9.15
295.558	5.15
295.691	-0.85
295.825	8.15
295.959	11.15
296.092	8.15
296.226	18.15
296.359	7.15
296.493	6.15
296.627	-4.85
296.76	4.15
296.894	-5.85
297.027	14.15
297.161	-2.85
297.294	-9.85
297.428	-6.85
297.561	22.15
297.695	3.15
297.828	-8.85
297.962	-3.85
298.095	-3.85
298.229	9.15
298.362	-0.85
298.495	-5.85
298.629	7.15
298.762	24.15
298.896	12.15
299.029	-7.85
299.162	12.15
299.296	-3.85
299.429	-5.85
299.563	-5.85
299.696	16.15
299.829	23.15
299.963	7.15
300.096	27.15
300.229	-14.85
300.363	0.15
300.496	17.15
300.629	-9.85
300.763	-16.85
300.896	-7.85
301.029	21.15
301.162	12.15
301.296	-4.85
301.429	-6.85
301.562	-7.85
301.695	5.15
301.829	15.15
301.962	41.15
302.095	-2.85
302.228	-15.85
302.362	3.15
302.495	-6.85
302.628	10.15
302.761	-18.85
302.894	-13.85
303.027	27.15
303.161	8.15
303.294	13.15
303.427	14.15
303.56	6.15
303.693	-8.85
303.826	8.15
303.959	-11.85
304.092	-3.85
304.225	11.15
304.359	7.15
304.492	3.15
304.625	-15.85
304.758	6.15
304.891	-8.85
305.024	11.15
305.157	3.15
305.29	7.15
305.423	-13.85
305.556	6.15
305.689	13.15
305.822	2.15
305.955	4.15
306.088	-1.85
306.221	4.15
306.354	-9.85
306.487	-7.85
306.62	-27.85
306.752	-12.85
306.885	-4.85
307.018	1.15
307.151	-3.85
307.284	20.15
307.417	0.15
307.55	12.15
307.683	6.15
307.816	7.15
307.948	7.15
308.081	10.15
308.214	17.15
308.347	19.15
308.48	-2.85
308.613	-20.85
308.745	8.15
308.878	-28.85
309.011	-8.85
309.144	18.15
309.277	-1.85
309.409	1.15
309.542	2.15
309.675	14.15
309.808	7.15
309.94	13.15
310.073	4.15
310.206	-3.85
310.339	16.15
310.471	-13.85
310.604	7.15
310.737	7.15
310.869	11.15
311.002	-1.85
311.135	2.15
311.267	-9.85
311.4	-2.85
311.533	31.15
311.665	19.15
311.798	0.15
311.93	-18.85
312.063	18.15
312.196	55.15
312.328	84.15
312.461	56.15
312.593	41.15
312.726	58.15
312.859	95.15
312.991	183.15
313.124	41.15
313.256	9.15
313.389	19.15
313.521	3.15
313.654	11.15
313.786	5.15
313.919	-13.85
314.051	1.15
314.184	23.15
314.316	10.15
314.449	0.15
314.581	-12.85
314.714	-12.85
314.846	4.15
314.978	8.15
315.111	-6.85
315.243	9.15
315.376	2.15
315.508	5.15
315.641	-2.85
315.773	39.15
315.905	16.15
316.038	0.15
316.17	-6.85
316.302	11.15
316.435	7.15
316.567	0.15
316.699	10.15
316.832	-12.85
316.964	-13.85
317.096	-2.85
317.229	-3.85
317.361	-14.85
317.493	-14.85
317.625	-4.85
317.758	-3.85
317.89	10.15
318.022	-14.85
318.155	-9.85
318.287	2.15
318.419	3.15
318.551	-9.85
318.683	7.15
318.816	19.15
318.948	-8.85
319.08	-15.85
319.212	-3.85
319.344	4.15
319.477	4.15
319.609	1.15
319.741	-0.85
319.873	-1.85
320.005	7.15
320.137	16.15
320.269	17.15
320.401	5.15
320.534	-16.85
320.666	-27.85
320.798	-17.85
320.93	-4.85
321.062	7.15
321.194	2.15
321.326	1.15
321.458	14.15
321.59	4.15
321.722	-3.85
321.854	-0.85
321.986	-7.85
322.118	15.15
322.25	-13.85
322.382	7.15
322.514	-7.85
322.646	6.15
322.778	19.15
322.91	-13.85
323.042	-0.85
323.174	-7.85
323.306	-8.85
323.438	-18.85
323.57	12.15
323.702	9.15
323.834	6.15
323.966	-14.85
324.097	-10.85
324.229	22.15
324.361	7.15
324.493	-2.85
324.625	11.15
324.757	22.15
324.889	4.15
325.021	-5.85
325.152	24.15
325.284	29.15
325.416	8.15
325.548	18.15
325.68	-4.85
325.811	19.15
325.943	3.15
326.075	-9.85
326.207	17.15
326.339	4.15
326.47	6.15
326.602	2.15
326.734	24.15
326.866	25.15
326.997	-1.85
327.129	7.15
327.261	-17.85
327.392	7.15
327.524	15.15
327.656	9.15
327.787	19.15
327.919	4.15
328.051	6.15
328.182	24.15
328.314	25.15
328.446	2.15
328.577	30.15
328.709	14.15
328.841	-2.85
328.972	-27.85
329.104	6.15
329.235	8.15
329.367	-6.85
329.499	-6.85
329.63	-1.85
329.762	-5.85
329.893	16.15
330.025	15.15
330.156	-13.85
330.288	10.15
330.419	17.15
330.551	28.15
330.683	10.15
330.814	6.15
330.946	22.15
331.077	10.15
331.208	-9.85
331.34	0.15
331.471	0.15
331.603	1.15
331.734	-7.85
331.866	17.15
331.997	3.15
332.129	-2.85
332.26	1.15
332.392	9.15
332.523	-8.85
332.654	-7.85
332.786	14.15
332.917	11.15
333.048	28.15
333.18	29.15
333.311	-8.85
333.443	8.15
333.574	3.15
333.705	25.15
333.837	29.15
333.968	100.15
334.099	203.15
334.231	208.15
334.362	43.15
334.493	25.15
334.624	26.15
334.756	2.15
334.887	14.15
335.018	7.15
335.15	18.15
335.281	8.15
335.412	30.15
335.543	18.15
335.675	36.15
335.806	24.15
335.937	8.15
336.068	23.15
336.199	32.15
336.331	3.15
336.462	9.15
336.593	23.15
336.724	5.15
336.855	5.15
336.986	13.15
337.118	8.15
337.249	5.15
337.38	17.15
337.511	27.15
337.642	12.15
337.773	5.15
337.904	-7.85
338.035	12.15
338.166	-2.85
338.298	-8.85
338.429	-4.85
338.56	22.15
338.691	28.15
338.822	9.15
338.953	21.15
339.084	24.15
339.215	26.15
339.346	23.15
339.477	20.15
339.608	5.15
339.739	6.15
339.87	13.15
340.001	12.15
340.132	3.15
340.263	5.15
340.394	13.15
340.525	12.15
340.656	14.15
340.787	-9.85
340.918	28.15
341.049	-2.85
341.179	2.15
341.31	8.15
341.441	15.15
341.572	14.15
341.703	4.15
341.834	4.15
341.965	35.15
342.096	17.15
342.227	21.15
342.357	18.15
342.488	10.15
342.619	6.15
342.75	7.15
342.881	-5.85
343.012	6.15
343.142	34.15
343.273	5.15
343.404	16.15
343.535	44.15
343.666	32.15
343.796	22.15
343.927	30.15
344.058	31.15
344.189	33.15
344.319	46.15
344.45	11.15
344.581	19.15
344.712	3.15
344.842	15.15
344.973	8.15
345.104	26.15
345.234	23.15
345.365	13.15
345.496	19.15
345.626	22.15
345.757	33.15
345.888	16.15
346.018	27.15
346.149	16.15
346.28	40.15
346.41	-2.85
346.541	24.15
346.672	12.15
346.802	22.15
346.933	36.15
347.063	19.15
347.194	13.15
347.325	30.15
347.455	34.15
347.586	45.15
347.716	15.15
347.847	40.15
347.977	46.15
348.108	28.15
348.238	37.15
348.369	40.15
348.499	60.15
348.63	46.15
348.76	60.15
348.891	43.15
349.021	54.15
349.152	45.15
349.282	28.15
349.413	31.15
349.543	66.15
349.674	35.15
349.804	29.15
349.935	24.15
350.065	17.15
350.196	13.15
350.326	18.15
350.456	14.15
350.587	30.15
350.717	17.15
350.848	27.15
350.978	34.15
351.108	19.15
351.239	18.15
351.369	16.15
351.499	0.15
351.63	12.15
351.76	16.15
351.89	20.15
352.021	33.15
352.151	16.15
352.281	22.15
352.412	35.15
352.542	34.15
352.672	11.15
352.803	28.15
352.933	20.15
353.063	9.15
353.193	29.15
353.324	18.15
353.454	30.15
353.584	35.15
353.714	9.15
353.845	6.15
353.975	34.15
354.105	12.15
354.235	13.15
354.365	23.15
354.496	25.15
354.626	21.15
354.756	38.15
354.886	20.15
355.016	29.15
355.146	11.15
355.277	23.15
355.407	16.15
355.537	19.15
355.667	28.15
355.797	19.15
355.927	19.15
356.057	8.15
356.187	0.15
356.318	23.15
356.448	30.15
356.578	32.15
356.708	32.15
356.838	28.15
356.968	17.15
357.098	32.15
357.228	30.15
357.358	16.15
357.488	9.15
357.618	60.15
357.748	46.15
357.878	44.15
358.008	28.15
358.138	18.15
358.268	27.15
358.398	40.15
358.528	1.15
358.658	17.15
358.788	21.15
358.918	25.15
359.048	34.15
359.178	34.15
359.308	40.15
359.438	26.15
359.568	20.15
359.698	23.15
359.827	19.15
359.957	36.15
360.087	27.15
360.217	7.15
360.347	20.15
360.477	38.15
360.607	12.15
360.737	44.15
360.866	21.15
360.996	3.15
361.126	12.15
361.256	41.15
361.386	45.15
361.516	50.15
361.645	20.15
361.775	31.15
361.905	20.15
362.035	33.15
362.165	13.15
362.294	39.15
362.424	52.15
362.554	55.15
362.684	33.15
362.813	36.15
362.943	54.15
363.073	61.15
363.203	46.15
363.332	55.15
363.462	75.15
363.592	99.15
363.721	118.15
363.851	159.15
363.981	220.15
364.111	227.15
364.24	316.15
364.37	460.15
364.5	847.15
364.629	1792.15
364.759	3853.15
364.888	6275.15
365.018	9378.15
365.148	14791.15
365.277	12907.15
365.407	4752.15
365.537	3162.15
365.666	4021.15
365.796	1801.15
365.925	802.15
366.055	763.15
366.184	992.15
366.314	1353.15
366.444	2443.15
366.573	2105.15
366.703	648.15
366.832	199.15
366.962	108.15
367.091	83.15
367.221	74.15
367.35	44.15
367.48	82.15
367.609	41.15
367.739	56.15
367.868	38.15
367.998	36.15
368.127	60.15
368.257	60.15
368.386	48.15
368.516	60.15
368.645	44.15
368.775	42.15
368.904	46.15
369.033	23.15
369.163	20.15
369.292	53.15
369.422	58.15
369.551	49.15
369.68	33.15
369.81	41.15
369.939	37.15
370.069	46.15
370.198	39.15
370.327	29.15
370.457	37.15
370.586	38.15
370.715	12.15
370.845	18.15
370.974	43.15
371.103	50.15
371.233	44.15
371.362	42.15
371.491	32.15
371.621	41.15
371.75	45.15
371.879	40.15
372.008	48.15
372.138	48.15
372.267	52.15
372.396	39.15
372.525	28.15
372.655	28.15
372.784	19.15
372.913	40.15
373.042	49.15
373.172	53.15
373.301	12.15
373.43	15.15
373.559	9.15
373.688	23.15
373.818	38.15
373.947	33.15
374.076	13.15
374.205	24.15
374.334	22.15
374.463	14.15
374.593	13.15
374.722	21.15
374.851	22.15
374.98	12.15
375.109	19.15
375.238	32.15
375.367	28.15
375.496	0.15
375.625	5.15
375.755	25.15
375.884	44.15
376.013	36.15
376.142	16.15
376.271	19.15
376.4	15.15
376.529	21.15
376.658	31.15
376.787	34.15
376.916	14.15
377.045	4.15
377.174	26.15
377.303	21.15
377.432	36.15
377.561	26.15
377.69	18.15
377.819	31.15
377.948	15.15
378.077	-0.85
378.206	10.15
378.335	20.15
378.464	-1.85
378.593	19.15
378.722	18.15
378.851	22.15
378.98	30.15
379.108	9.15
379.237	13.15
379.366	19.15
379.495	23.15
379.624	28.15
379.753	20.15
379.882	19.15
380.011	-0.85
380.14	10.15
380.268	18.15
380.397	13.15
380.526	23.15
380.655	-8.85
380.784	-9.85
380.913	3.15
381.041	6.15
381.17	-9.85
381.299	6.15
381.428	25.15
381.557	23.15
381.685	11.15
381.814	23.15
381.943	24.15
382.072	10.15
382.2	2.15
382.329	3.15
382.458	19.15
382.587	38.15
382.715	35.15
382.844	15.15
382.973	35.15
383.102	4.15
383.23	-1.85
383.359	-11.85
383.488	2.15
383.616	15.15
383.745	-0.85
383.874	20.15
384.003	25.15
384.131	4.15
384.26	8.15
384.389	16.15
384.517	30.15
384.646	2.15
384.774	19.15
384.903	31.15
385.032	25.15
385.16	24.15
385.289	11.15
385.418	15.15
385.546	19.15
385.675	22.15
385.803	29.15
385.932	17.15
386.06	7.15
386.189	4.15
386.318	21.15
386.446	36.15
386.575	22.15
386.703	34.15
386.832	6.15
386.96	-0.85
387.089	21.15
387.217	24.15
387.346	32.15
387.474	22.15
387.603	21.15
387.731	14.15
387.86	30.15
387.988	27.15
388.117	25.15
388.245	23.15
388.374	0.15
388.502	19.15
388.631	5.15
388.759	21.15
388.888	25.15
389.016	4.15
389.144	25.15
389.273	22.15
389.401	7.15
389.53	-1.85
389.658	21.15
389.786	3.15
389.915	11.15
390.043	4.15
390.172	19.15
390.3	52.15
390.428	46.15
390.557	32.15
390.685	55.15
390.813	37.15
390.942	41.15
391.07	44.15
391.198	27.15
391.327	1.15
391.455	3.15
391.583	28.15
391.712	32.15
391.84	37.15
391.968	26.15
392.096	5.15
392.225	15.15
392.353	41.15
392.481	16.15
392.609	43.15
392.738	5.15
392.866	23.15
392.994	18.15
393.122	29.15
393.251	21.15
393.379	6.15
393.507	-5.85
393.635	12.15
393.764	16.15
393.892	25.15
394.02	9.15
394.148	19.15
394.276	26.15
394.404	38.15
394.533	20.15
394.661	22.15
394.789	36.15
394.917	48.15
395.045	14.15
395.173	6.15
395.302	17.15
395.43	12.15
395.558	52.15
395.686	39.15
395.814	22.15
395.942	24.15
396.07	36.15
396.198	38.15
396.326	43.15
396.454	30.15
396.582	11.15
396.711	12.15
396.839	26.15
396.967	32.15
397.095	16.15
397.223	27.15
397.351	51.15
397.479	31.15
397.607	43.15
397.735	37.15
397.863	53.15
397.991	50.15
398.119	10.15
398.247	64.15
398.375	58.15
398.503	48.15
398.631	64.15
398.759	62.15
398.887	51.15
399.015	35.15
399.143	49.15
399.271	56.15
399.399	85.15
399.526	61.15
399.654	78.15
399.782	48.15
399.91	93.15
400.038	103.15
400.166	73.15
400.294	80.15
400.422	90.15
400.55	88.15
400.678	92.15
400.805	95.15
400.933	112.15
401.061	128.15
401.189	109.15
401.317	134.15
401.445	92.15
401.573	70.15
401.7	46.15
401.828	50.15
401.956	48.15
402.084	53.15
402.212	41.15
402.34	33.15
402.467	38.15
402.595	30.15
402.723	44.15
402.851	57.15
402.978	33.15
403.106	68.15
403.234	94.15
403.362	126.15
403.489	116.15
403.617	137.15
403.745	206.15
403.873	280.15
404	568.15
404.128	1453.15
404.256	3925.15
404.384	5114.15
404.511	5448.15
404.639	7129.15
404.767	11422.15
404.894	14593.15
405.022	4916.15
405.15	1290.15
405.277	432.15
405.405	229.15
405.533	125.15
405.66	93.15
405.788	61.15
405.916	74.15
406.043	53.15
406.171	40.15
406.299	58.15
406.426	65.15
406.554	52.15
406.681	50.15
406.809	49.15
406.937	62.15
407.064	90.15
407.192	139.15
407.319	303.15
407.447	516.15
407.574	547.15
407.702	644.15
407.83	841.15
407.957	1596.15
408.085	929.15
408.212	260.15
408.34	102.15
408.467	60.15
408.595	66.15
408.722	62.15
408.85	39.15
408.977	27.15
409.105	38.15
409.232	30.15
409.36	12.15
409.487	28.15
409.615	27.15
409.742	29.15
409.87	21.15
409.997	47.15
410.125	33.15
410.252	48.15
410.379	33.15
410.507	42.15
410.634	26.15
410.762	26.15
410.889	32.15
411.017	30.15
411.144	38.15
411.271	9.15
411.399	25.15
411.526	33.15
411.653	26.15
411.781	40.15
411.908	42.15
412.036	8.15
412.163	30.15
412.29	29.15
412.418	22.15
412.545	47.15
412.672	38.15
412.8	60.15
412.927	32.15
413.054	47.15
413.182	28.15
413.309	10.15
413.436	20.15
413.564	51.15
413.691	15.15
413.818	37.15
413.945	12.15
414.073	11.15
414.2	48.15
414.327	27.15
414.454	32.15
414.582	13.15
414.709	10.15
414.836	22.15
414.963	25.15
415.091	24.15
415.218	35.15
415.345	35.15
415.472	27.15
415.6	33.15
415.727	43.15
415.854	26.15
415.981	16.15
416.108	33.15
416.236	17.15
416.363	46.15
416.49	27.15
416.617	18.15
416.744	14.15
416.871	23.15
416.998	34.15
417.126	41.15
417.253	14.15
417.38	15.15
417.507	36.15
417.634	29.15
417.761	24.15
417.888	39.15
418.015	25.15
418.143	29.15
418.27	44.15
418.397	28.15
418.524	30.15
418.651	20.15
418.778	33.15
418.905	67.15
419.032	40.15
419.159	55.15
419.286	57.15
