Data from LowRes_mercury_15_20_11_07_2024_HR4C61881__48__15-23-37-071.txt Node

Date: Thu Nov 07 15:23:37 EST 2024
User: crc00042
Spectrometer: HR4C6188
Trigger mode: 4
Integration Time (sec): 1.000000E-1
Scans to average: 1
Electric dark correction enabled: true
Nonlinearity correction enabled: false
Boxcar width: 0
XAxis mode: Wavelengths
Number of Pixels in Spectrum: 3648
>>>>>Begin Spectral Data<<<<<
245.66	-56.54
245.797	-56.54
245.934	-56.54
246.071	-51.54
246.208	6.46
246.344	7.46
246.481	-23.54
246.618	-7.54
246.755	26.46
246.892	-13.54
247.029	-8.54
247.165	-15.54
247.302	0.46
247.439	-2.54
247.576	12.46
247.713	-5.54
247.849	33.46
247.986	-3.54
248.123	1.46
248.26	3.46
248.396	22.46
248.533	17.46
248.67	8.46
248.806	13.46
248.943	9.46
249.08	5.46
249.216	23.46
249.353	-6.54
249.49	5.46
249.626	7.46
249.763	15.46
249.9	-7.54
250.036	10.46
250.173	5.46
250.309	22.46
250.446	11.46
250.582	7.46
250.719	-11.54
250.856	9.46
250.992	17.46
251.129	19.46
251.265	13.46
251.402	13.46
251.538	3.46
251.675	13.46
251.811	21.46
251.948	31.46
252.084	10.46
252.221	7.46
252.357	-10.54
252.493	17.46
252.63	8.46
252.766	28.46
252.903	4.46
253.039	5.46
253.175	15.46
253.312	14.46
253.448	7.46
253.585	-12.54
253.721	15.46
253.857	-6.54
253.994	10.46
254.13	6.46
254.266	13.46
254.403	18.46
254.539	1.46
254.675	4.46
254.811	10.46
254.948	10.46
255.084	6.46
255.22	-7.54
255.356	10.46
255.493	14.46
255.629	17.46
255.765	16.46
255.901	7.46
256.037	11.46
256.174	15.46
256.31	7.46
256.446	23.46
256.582	11.46
256.718	5.46
256.854	11.46
256.991	11.46
257.127	22.46
257.263	9.46
257.399	21.46
257.535	4.46
257.671	14.46
257.807	-5.54
257.943	8.46
258.079	3.46
258.215	8.46
258.351	38.46
258.487	11.46
258.623	34.46
258.759	5.46
258.895	-0.54
259.031	7.46
259.167	-16.54
259.303	-0.54
259.439	13.46
259.575	-8.54
259.711	-4.54
259.847	8.46
259.983	12.46
260.119	6.46
260.255	5.46
260.391	8.46
260.527	6.46
260.663	14.46
260.799	9.46
260.934	-4.54
261.07	-2.54
261.206	-18.54
261.342	-14.54
261.478	7.46
261.614	19.46
261.749	-12.54
261.885	4.46
262.021	13.46
262.157	10.46
262.293	3.46
262.428	9.46
262.564	11.46
262.7	2.46
262.836	12.46
262.971	18.46
263.107	6.46
263.243	14.46
263.378	-1.54
263.514	-4.54
263.65	15.46
263.785	-9.54
263.921	-7.54
264.057	-15.54
264.192	5.46
264.328	13.46
264.464	-10.54
264.599	3.46
264.735	16.46
264.871	-3.54
265.006	19.46
265.142	3.46
265.277	19.46
265.413	23.46
265.548	23.46
265.684	19.46
265.819	0.46
265.955	-16.54
266.091	0.46
266.226	-5.54
266.362	8.46
266.497	31.46
266.633	15.46
266.768	-1.54
266.903	26.46
267.039	15.46
267.174	32.46
267.31	-2.54
267.445	-1.54
267.581	5.46
267.716	8.46
267.851	22.46
267.987	18.46
268.122	2.46
268.258	-1.54
268.393	9.46
268.528	19.46
268.664	12.46
268.799	-4.54
268.934	1.46
269.07	-2.54
269.205	14.46
269.34	44.46
269.476	-3.54
269.611	-6.54
269.746	22.46
269.881	3.46
270.017	37.46
270.152	10.46
270.287	10.46
270.422	5.46
270.558	-6.54
270.693	10.46
270.828	0.46
270.963	16.46
271.098	15.46
271.234	14.46
271.369	9.46
271.504	12.46
271.639	6.46
271.774	12.46
271.909	5.46
272.045	-5.54
272.18	-8.54
272.315	11.46
272.45	9.46
272.585	0.46
272.72	0.46
272.855	3.46
272.99	3.46
273.125	-4.54
273.26	-14.54
273.395	5.46
273.53	14.46
273.665	29.46
273.8	23.46
273.935	10.46
274.07	12.46
274.205	17.46
274.34	17.46
274.475	-1.54
274.61	17.46
274.745	1.46
274.88	30.46
275.015	15.46
275.15	11.46
275.285	12.46
275.42	21.46
275.555	15.46
275.69	25.46
275.825	19.46
275.959	11.46
276.094	-6.54
276.229	3.46
276.364	2.46
276.499	8.46
276.634	9.46
276.768	7.46
276.903	9.46
277.038	23.46
277.173	26.46
277.308	-2.54
277.442	8.46
277.577	-13.54
277.712	14.46
277.847	10.46
277.981	3.46
278.116	-3.54
278.251	15.46
278.386	16.46
278.52	11.46
278.655	5.46
278.79	24.46
278.924	5.46
279.059	23.46
279.194	2.46
279.328	34.46
279.463	38.46
279.598	29.46
279.732	15.46
279.867	20.46
280.001	20.46
280.136	28.46
280.271	15.46
280.405	1.46
280.54	2.46
280.674	3.46
280.809	29.46
280.943	8.46
281.078	11.46
281.213	39.46
281.347	28.46
281.482	4.46
281.616	18.46
281.751	-0.54
281.885	10.46
282.02	6.46
282.154	17.46
282.288	-13.54
282.423	-15.54
282.557	-2.54
282.692	23.46
282.826	7.46
282.961	10.46
283.095	10.46
283.229	14.46
283.364	-1.54
283.498	22.46
283.633	11.46
283.767	5.46
283.901	13.46
284.036	17.46
284.17	0.46
284.304	-1.54
284.439	7.46
284.573	-2.54
284.707	31.46
284.842	9.46
284.976	3.46
285.11	-8.54
285.244	29.46
285.379	68.46
285.513	9.46
285.647	6.46
285.781	0.46
285.916	28.46
286.05	5.46
286.184	21.46
286.318	26.46
286.453	1.46
286.587	-2.54
286.721	-8.54
286.855	-9.54
286.989	22.46
287.123	13.46
287.258	21.46
287.392	23.46
287.526	20.46
287.66	1.46
287.794	-0.54
287.928	16.46
288.062	36.46
288.196	0.46
288.33	9.46
288.464	24.46
288.598	25.46
288.733	33.46
288.867	25.46
289.001	10.46
289.135	5.46
289.269	-7.54
289.403	3.46
289.537	6.46
289.671	11.46
289.805	-18.54
289.939	2.46
290.073	8.46
290.207	27.46
290.34	1.46
290.474	9.46
290.608	14.46
290.742	-4.54
290.876	14.46
291.01	8.46
291.144	36.46
291.278	11.46
291.412	-0.54
291.546	0.46
291.679	-2.54
291.813	3.46
291.947	18.46
292.081	2.46
292.215	29.46
292.349	18.46
292.482	26.46
292.616	16.46
292.75	14.46
292.884	11.46
293.018	13.46
293.151	1.46
293.285	8.46
293.419	5.46
293.553	-2.54
293.686	3.46
293.82	2.46
293.954	24.46
294.088	45.46
294.221	26.46
294.355	-3.54
294.489	10.46
294.622	5.46
294.756	-12.54
294.89	0.46
295.023	20.46
295.157	4.46
295.291	17.46
295.424	20.46
295.558	3.46
295.691	1.46
295.825	21.46
295.959	0.46
296.092	10.46
296.226	-0.54
296.359	6.46
296.493	9.46
296.627	14.46
296.76	11.46
296.894	2.46
297.027	1.46
297.161	1.46
297.294	2.46
297.428	-3.54
297.561	41.46
297.695	4.46
297.828	-1.54
297.962	-20.54
298.095	-14.54
298.229	14.46
298.362	-5.54
298.495	1.46
298.629	3.46
298.762	-4.54
298.896	4.46
299.029	-1.54
299.162	20.46
299.296	7.46
299.429	4.46
299.563	-13.54
299.696	9.46
299.829	22.46
299.963	11.46
300.096	15.46
300.229	7.46
300.363	-0.54
300.496	-0.54
300.629	-10.54
300.763	3.46
300.896	15.46
301.029	9.46
301.162	-9.54
301.296	7.46
301.429	-13.54
301.562	1.46
301.695	28.46
301.829	10.46
301.962	26.46
302.095	2.46
302.228	-11.54
302.362	23.46
302.495	1.46
302.628	7.46
302.761	-3.54
302.894	9.46
303.027	29.46
303.161	5.46
303.294	-5.54
303.427	7.46
303.56	10.46
303.693	-7.54
303.826	4.46
303.959	17.46
304.092	15.46
304.225	-4.54
304.359	18.46
304.492	16.46
304.625	10.46
304.758	27.46
304.891	5.46
305.024	13.46
305.157	10.46
305.29	-1.54
305.423	6.46
305.556	12.46
305.689	26.46
305.822	17.46
305.955	5.46
306.088	-1.54
306.221	-2.54
306.354	-7.54
306.487	5.46
306.62	2.46
306.752	4.46
306.885	2.46
307.018	-13.54
307.151	28.46
307.284	22.46
307.417	-8.54
307.55	10.46
307.683	11.46
307.816	25.46
307.948	14.46
308.081	7.46
308.214	15.46
308.347	28.46
308.48	5.46
308.613	1.46
308.745	18.46
308.878	-0.54
309.011	14.46
309.144	27.46
309.277	11.46
309.409	12.46
309.542	-1.54
309.675	26.46
309.808	13.46
309.94	22.46
310.073	5.46
310.206	13.46
310.339	22.46
310.471	-20.54
310.604	12.46
310.737	-4.54
310.869	6.46
311.002	7.46
311.135	18.46
311.267	-21.54
311.4	6.46
311.533	30.46
311.665	7.46
311.798	3.46
311.93	20.46
312.063	18.46
312.196	35.46
312.328	81.46
312.461	62.46
312.593	35.46
312.726	57.46
312.859	114.46
312.991	169.46
313.124	55.46
313.256	20.46
313.389	9.46
313.521	0.46
313.654	18.46
313.786	1.46
313.919	13.46
314.051	36.46
314.184	13.46
314.316	3.46
314.449	-14.54
314.581	-2.54
314.714	-3.54
314.846	22.46
314.978	-4.54
315.111	5.46
315.243	28.46
315.376	15.46
315.508	14.46
315.641	13.46
315.773	20.46
315.905	2.46
316.038	-8.54
316.17	23.46
316.302	22.46
316.435	22.46
316.567	31.46
316.699	30.46
316.832	-1.54
316.964	4.46
317.096	1.46
317.229	6.46
317.361	-12.54
317.493	-2.54
317.625	4.46
317.758	9.46
317.89	20.46
318.022	21.46
318.155	0.46
318.287	11.46
318.419	-1.54
318.551	-5.54
318.683	16.46
318.816	13.46
318.948	7.46
319.08	-9.54
319.212	6.46
319.344	18.46
319.477	8.46
319.609	13.46
319.741	9.46
319.873	18.46
320.005	-2.54
320.137	21.46
320.269	8.46
320.401	11.46
320.534	13.46
320.666	4.46
320.798	6.46
320.93	-8.54
321.062	-12.54
321.194	18.46
321.326	16.46
321.458	19.46
321.59	9.46
321.722	10.46
321.854	7.46
321.986	6.46
322.118	17.46
322.25	5.46
322.382	-19.54
322.514	9.46
322.646	5.46
322.778	25.46
322.91	5.46
323.042	23.46
323.174	6.46
323.306	-9.54
323.438	-18.54
323.57	2.46
323.702	-5.54
323.834	2.46
323.966	-4.54
324.097	12.46
324.229	-0.54
324.361	7.46
324.493	19.46
324.625	10.46
324.757	22.46
324.889	17.46
325.021	21.46
325.152	27.46
325.284	15.46
325.416	7.46
325.548	35.46
325.68	17.46
325.811	19.46
325.943	29.46
326.075	7.46
326.207	16.46
326.339	11.46
326.47	6.46
326.602	22.46
326.734	20.46
326.866	41.46
326.997	7.46
327.129	9.46
327.261	-2.54
327.392	11.46
327.524	7.46
327.656	16.46
327.787	8.46
327.919	23.46
328.051	34.46
328.182	25.46
328.314	38.46
328.446	12.46
328.577	16.46
328.709	16.46
328.841	8.46
328.972	-4.54
329.104	2.46
329.235	3.46
329.367	1.46
329.499	14.46
329.63	10.46
329.762	14.46
329.893	3.46
330.025	4.46
330.156	-7.54
330.288	-0.54
330.419	6.46
330.551	24.46
330.683	11.46
330.814	-1.54
330.946	31.46
331.077	0.46
331.208	17.46
331.34	11.46
331.471	-1.54
331.603	24.46
331.734	-9.54
331.866	3.46
331.997	21.46
332.129	4.46
332.26	11.46
332.392	22.46
332.523	18.46
332.654	13.46
332.786	9.46
332.917	18.46
333.048	26.46
333.18	18.46
333.311	10.46
333.443	5.46
333.574	17.46
333.705	35.46
333.837	49.46
333.968	128.46
334.099	225.46
334.231	203.46
334.362	46.46
334.493	27.46
334.624	14.46
334.756	34.46
334.887	23.46
335.018	32.46
335.15	25.46
335.281	31.46
335.412	21.46
335.543	13.46
335.675	4.46
335.806	23.46
335.937	22.46
336.068	28.46
336.199	29.46
336.331	7.46
336.462	12.46
336.593	30.46
336.724	20.46
336.855	0.46
336.986	18.46
337.118	39.46
337.249	5.46
337.38	35.46
337.511	25.46
337.642	40.46
337.773	19.46
337.904	13.46
338.035	16.46
338.166	23.46
338.298	15.46
338.429	20.46
338.56	38.46
338.691	21.46
338.822	5.46
338.953	24.46
339.084	18.46
339.215	27.46
339.346	27.46
339.477	33.46
339.608	16.46
339.739	20.46
339.87	29.46
340.001	28.46
340.132	22.46
340.263	10.46
340.394	12.46
340.525	25.46
340.656	3.46
340.787	-5.54
340.918	17.46
341.049	15.46
341.179	21.46
341.31	29.46
341.441	32.46
341.572	30.46
341.703	18.46
341.834	4.46
341.965	37.46
342.096	23.46
342.227	21.46
342.357	22.46
342.488	8.46
342.619	24.46
342.75	23.46
342.881	7.46
343.012	39.46
343.142	49.46
343.273	11.46
343.404	15.46
343.535	51.46
343.666	39.46
343.796	33.46
343.927	21.46
344.058	22.46
344.189	38.46
344.319	47.46
344.45	42.46
344.581	42.46
344.712	6.46
344.842	17.46
344.973	29.46
345.104	49.46
345.234	30.46
345.365	16.46
345.496	29.46
345.626	26.46
345.757	35.46
345.888	21.46
346.018	30.46
346.149	34.46
346.28	36.46
346.41	31.46
346.541	33.46
346.672	19.46
346.802	36.46
346.933	40.46
347.063	14.46
347.194	20.46
347.325	21.46
347.455	48.46
347.586	29.46
347.716	-0.54
347.847	31.46
347.977	33.46
348.108	50.46
348.238	48.46
348.369	34.46
348.499	47.46
348.63	45.46
348.76	38.46
348.891	60.46
349.021	73.46
349.152	72.46
349.282	64.46
349.413	46.46
349.543	53.46
349.674	23.46
349.804	44.46
349.935	17.46
350.065	25.46
350.196	38.46
350.326	51.46
350.456	25.46
350.587	22.46
350.717	33.46
350.848	35.46
350.978	25.46
351.108	15.46
351.239	36.46
351.369	23.46
351.499	20.46
351.63	30.46
351.76	22.46
351.89	26.46
352.021	13.46
352.151	3.46
352.281	23.46
352.412	31.46
352.542	36.46
352.672	33.46
352.803	24.46
352.933	28.46
353.063	25.46
353.193	27.46
353.324	14.46
353.454	35.46
353.584	32.46
353.714	27.46
353.845	39.46
353.975	27.46
354.105	18.46
354.235	33.46
354.365	14.46
354.496	16.46
354.626	32.46
354.756	33.46
354.886	21.46
355.016	27.46
355.146	18.46
355.277	38.46
355.407	8.46
355.537	48.46
355.667	31.46
355.797	22.46
355.927	9.46
356.057	19.46
356.187	14.46
356.318	15.46
356.448	46.46
356.578	45.46
356.708	27.46
356.838	18.46
356.968	25.46
357.098	26.46
357.228	43.46
357.358	24.46
357.488	36.46
357.618	53.46
357.748	53.46
357.878	25.46
358.008	18.46
358.138	18.46
358.268	18.46
358.398	36.46
358.528	11.46
358.658	43.46
358.788	32.46
358.918	48.46
359.048	25.46
359.178	43.46
359.308	48.46
359.438	51.46
359.568	29.46
359.698	36.46
359.827	38.46
359.957	39.46
360.087	33.46
360.217	41.46
360.347	39.46
360.477	44.46
360.607	28.46
360.737	42.46
360.866	34.46
360.996	35.46
361.126	27.46
361.256	43.46
361.386	38.46
361.516	33.46
361.645	20.46
361.775	38.46
361.905	28.46
362.035	54.46
362.165	38.46
362.294	53.46
362.424	47.46
362.554	52.46
362.684	21.46
362.813	47.46
362.943	58.46
363.073	42.46
363.203	67.46
363.332	65.46
363.462	69.46
363.592	94.46
363.721	119.46
363.851	162.46
363.981	217.46
364.111	258.46
364.24	334.46
364.37	492.46
364.5	853.46
364.629	1767.46
364.759	3780.46
364.888	6222.46
365.018	9273.46
365.148	14748.46
365.277	12756.46
365.407	4699.46
365.537	3030.46
365.666	3938.46
365.796	1784.46
365.925	795.46
366.055	758.46
366.184	1040.46
366.314	1381.46
366.444	2452.46
366.573	2141.46
366.703	663.46
366.832	214.46
366.962	103.46
367.091	89.46
367.221	87.46
367.35	66.46
367.48	86.46
367.609	59.46
367.739	59.46
367.868	50.46
367.998	61.46
368.127	64.46
368.257	52.46
368.386	54.46
368.516	64.46
368.645	53.46
368.775	53.46
368.904	47.46
369.033	40.46
369.163	35.46
369.292	44.46
369.422	43.46
369.551	62.46
369.68	62.46
369.81	42.46
369.939	25.46
370.069	54.46
370.198	47.46
370.327	21.46
370.457	42.46
370.586	51.46
370.715	18.46
370.845	22.46
370.974	48.46
371.103	67.46
371.233	52.46
371.362	64.46
371.491	39.46
371.621	59.46
371.75	53.46
371.879	55.46
372.008	50.46
372.138	68.46
372.267	49.46
372.396	45.46
372.525	36.46
372.655	27.46
372.784	22.46
372.913	29.46
373.042	34.46
373.172	33.46
373.301	-0.54
373.43	19.46
373.559	23.46
373.688	38.46
373.818	43.46
373.947	34.46
374.076	19.46
374.205	30.46
374.334	12.46
374.463	16.46
374.593	32.46
374.722	13.46
374.851	36.46
374.98	25.46
375.109	19.46
375.238	36.46
375.367	32.46
375.496	11.46
375.625	7.46
375.755	34.46
375.884	35.46
376.013	47.46
376.142	9.46
376.271	33.46
376.4	35.46
376.529	51.46
376.658	22.46
376.787	24.46
376.916	29.46
377.045	19.46
377.174	18.46
377.303	24.46
377.432	34.46
377.561	20.46
377.69	20.46
377.819	49.46
377.948	24.46
378.077	33.46
378.206	13.46
378.335	19.46
378.464	30.46
378.593	40.46
378.722	14.46
378.851	11.46
378.98	43.46
379.108	-0.54
379.237	9.46
379.366	40.46
379.495	25.46
379.624	27.46
379.753	27.46
379.882	22.46
380.011	-8.54
380.14	13.46
380.268	28.46
380.397	23.46
380.526	57.46
380.655	7.46
380.784	-2.54
380.913	13.46
381.041	13.46
381.17	22.46
381.299	19.46
381.428	17.46
381.557	22.46
381.685	23.46
381.814	6.46
381.943	33.46
382.072	-6.54
382.2	27.46
382.329	21.46
382.458	12.46
382.587	24.46
382.715	34.46
382.844	30.46
382.973	38.46
383.102	29.46
383.23	13.46
383.359	17.46
383.488	29.46
383.616	21.46
383.745	11.46
383.874	21.46
384.003	10.46
384.131	29.46
384.26	18.46
384.389	36.46
384.517	10.46
384.646	22.46
384.774	17.46
384.903	36.46
385.032	45.46
385.16	12.46
385.289	27.46
385.418	28.46
385.546	35.46
385.675	38.46
385.803	18.46
385.932	31.46
386.06	15.46
386.189	29.46
386.318	44.46
386.446	20.46
386.575	29.46
386.703	39.46
386.832	17.46
386.96	24.46
387.089	29.46
387.217	0.46
387.346	15.46
387.474	16.46
387.603	36.46
387.731	29.46
387.86	42.46
387.988	25.46
388.117	16.46
388.245	2.46
388.374	16.46
388.502	43.46
388.631	17.46
388.759	10.46
388.888	20.46
389.016	29.46
389.144	21.46
389.273	24.46
389.401	17.46
389.53	7.46
389.658	35.46
389.786	26.46
389.915	5.46
390.043	27.46
390.172	20.46
390.3	58.46
390.428	55.46
390.557	36.46
390.685	36.46
390.813	39.46
390.942	63.46
391.07	29.46
391.198	27.46
391.327	21.46
391.455	9.46
391.583	52.46
391.712	29.46
391.84	28.46
391.968	34.46
392.096	22.46
392.225	31.46
392.353	31.46
392.481	43.46
392.609	42.46
392.738	38.46
392.866	43.46
392.994	22.46
393.122	38.46
393.251	19.46
393.379	26.46
393.507	20.46
393.635	22.46
393.764	51.46
393.892	44.46
394.02	17.46
394.148	22.46
394.276	33.46
394.404	53.46
394.533	38.46
394.661	41.46
394.789	57.46
394.917	52.46
395.045	19.46
395.173	21.46
395.302	24.46
395.43	37.46
395.558	56.46
395.686	38.46
395.814	30.46
395.942	25.46
396.07	23.46
396.198	34.46
396.326	47.46
396.454	51.46
396.582	58.46
396.711	28.46
396.839	43.46
396.967	39.46
397.095	42.46
397.223	55.46
397.351	59.46
397.479	55.46
397.607	20.46
397.735	53.46
397.863	65.46
397.991	58.46
398.119	53.46
398.247	51.46
398.375	50.46
398.503	49.46
398.631	66.46
398.759	59.46
398.887	51.46
399.015	44.46
399.143	52.46
399.271	87.46
399.399	80.46
399.526	79.46
399.654	92.46
399.782	48.46
399.91	103.46
400.038	102.46
400.166	102.46
400.294	99.46
400.422	91.46
400.55	112.46
400.678	109.46
400.805	119.46
400.933	115.46
401.061	130.46
401.189	134.46
401.317	140.46
401.445	107.46
401.573	102.46
401.7	64.46
401.828	61.46
401.956	50.46
402.084	47.46
402.212	30.46
402.34	33.46
402.467	43.46
402.595	41.46
402.723	38.46
402.851	45.46
402.978	74.46
403.106	95.46
403.234	92.46
403.362	112.46
403.489	113.46
403.617	154.46
403.745	188.46
403.873	267.46
404	545.46
404.128	1440.46
404.256	3857.46
404.384	5022.46
404.511	5383.46
404.639	7019.46
404.767	11281.46
404.894	14521.46
405.022	4867.46
405.15	1266.46
405.277	432.46
405.405	246.46
405.533	139.46
405.66	123.46
405.788	44.46
405.916	57.46
406.043	48.46
406.171	68.46
406.299	77.46
406.426	67.46
406.554	53.46
406.681	66.46
406.809	59.46
406.937	72.46
407.064	69.46
407.192	143.46
407.319	291.46
407.447	527.46
407.574	543.46
407.702	613.46
407.83	856.46
407.957	1601.46
408.085	922.46
408.212	277.46
408.34	108.46
408.467	41.46
408.595	22.46
408.722	53.46
408.85	62.46
408.977	39.46
409.105	41.46
409.232	53.46
409.36	36.46
409.487	27.46
409.615	33.46
409.742	47.46
409.87	38.46
409.997	43.46
410.125	49.46
410.252	53.46
410.379	12.46
410.507	31.46
410.634	8.46
410.762	26.46
410.889	40.46
411.017	33.46
411.144	38.46
411.271	28.46
411.399	47.46
411.526	41.46
411.653	32.46
411.781	56.46
411.908	43.46
412.036	23.46
412.163	48.46
412.29	44.46
412.418	28.46
412.545	43.46
412.672	31.46
412.8	59.46
412.927	42.46
413.054	45.46
413.182	36.46
413.309	27.46
413.436	25.46
413.564	43.46
413.691	40.46
413.818	54.46
413.945	25.46
414.073	22.46
414.2	32.46
414.327	47.46
414.454	37.46
414.582	33.46
414.709	23.46
414.836	13.46
414.963	32.46
415.091	55.46
415.218	33.46
415.345	36.46
415.472	34.46
415.6	20.46
415.727	41.46
415.854	36.46
415.981	36.46
416.108	44.46
416.236	52.46
416.363	39.46
416.49	13.46
416.617	46.46
416.744	48.46
416.871	21.46
416.998	28.46
417.126	22.46
417.253	24.46
417.38	30.46
417.507	13.46
417.634	17.46
417.761	32.46
417.888	48.46
418.015	29.46
418.143	51.46
418.27	52.46
418.397	44.46
418.524	33.46
418.651	21.46
418.778	39.46
418.905	56.46
419.032	50.46
419.159	47.46
419.286	59.46
