Data from LowRes_mercury_15_20_11_07_2024_HR4C61881__56__15-23-37-871.txt Node

Date: Thu Nov 07 15:23:37 EST 2024
User: crc00042
Spectrometer: HR4C6188
Trigger mode: 4
Integration Time (sec): 1.000000E-1
Scans to average: 1
Electric dark correction enabled: true
Nonlinearity correction enabled: false
Boxcar width: 0
XAxis mode: Wavelengths
Number of Pixels in Spectrum: 3648
>>>>>Begin Spectral Data<<<<<
245.66	-74.85
245.797	-74.85
245.934	-74.85
246.071	-66.85
246.208	16.15
246.344	12.15
246.481	-1.85
246.618	-17.85
246.755	14.15
246.892	-9.85
247.029	-10.85
247.165	-5.85
247.302	-0.85
247.439	-4.85
247.576	6.15
247.713	-6.85
247.849	39.15
247.986	-12.85
248.123	2.15
248.26	-17.85
248.396	8.15
248.533	-8.85
248.67	-16.85
248.806	-1.85
248.943	-12.85
249.08	-15.85
249.216	21.15
249.353	-11.85
249.49	-12.85
249.626	-6.85
249.763	-0.85
249.9	-22.85
250.036	7.15
250.173	1.15
250.309	4.15
250.446	-8.85
250.582	-10.85
250.719	0.15
250.856	3.15
250.992	5.15
251.129	2.15
251.265	-18.85
251.402	1.15
251.538	7.15
251.675	-9.85
251.811	11.15
251.948	-0.85
252.084	-4.85
252.221	-5.85
252.357	-5.85
252.493	25.15
252.63	7.15
252.766	23.15
252.903	-19.85
253.039	1.15
253.175	-3.85
253.312	11.15
253.448	-6.85
253.585	-9.85
253.721	0.15
253.857	-6.85
253.994	1.15
254.13	4.15
254.266	4.15
254.403	-9.85
254.539	-7.85
254.675	-5.85
254.811	4.15
254.948	9.15
255.084	-2.85
255.22	-19.85
255.356	-8.85
255.493	8.15
255.629	7.15
255.765	-2.85
255.901	5.15
256.037	8.15
256.174	7.15
256.31	6.15
256.446	-16.85
256.582	3.15
256.718	2.15
256.854	13.15
256.991	-2.85
257.127	2.15
257.263	-9.85
257.399	17.15
257.535	-15.85
257.671	3.15
257.807	-13.85
257.943	-12.85
258.079	-13.85
258.215	-8.85
258.351	30.15
258.487	17.15
258.623	15.15
258.759	-4.85
258.895	-11.85
259.031	-3.85
259.167	-1.85
259.303	2.15
259.439	9.15
259.575	1.15
259.711	5.15
259.847	-8.85
259.983	8.15
260.119	17.15
260.255	-8.85
260.391	6.15
260.527	2.15
260.663	8.15
260.799	22.15
260.934	-5.85
261.07	-5.85
261.206	-14.85
261.342	-16.85
261.478	8.15
261.614	9.15
261.749	-1.85
261.885	-1.85
262.021	-15.85
262.157	12.15
262.293	2.15
262.428	2.15
262.564	19.15
262.7	6.15
262.836	7.15
262.971	13.15
263.107	7.15
263.243	3.15
263.378	-2.85
263.514	-17.85
263.65	7.15
263.785	-18.85
263.921	-16.85
264.057	1.15
264.192	-6.85
264.328	20.15
264.464	-12.85
264.599	9.15
264.735	12.15
264.871	-16.85
265.006	-18.85
265.142	-11.85
265.277	-11.85
265.413	0.15
265.548	29.15
265.684	23.15
265.819	-6.85
265.955	-16.85
266.091	-24.85
266.226	-23.85
266.362	19.15
266.497	9.15
266.633	-6.85
266.768	1.15
266.903	10.15
267.039	10.15
267.174	19.15
267.31	15.15
267.445	10.15
267.581	-2.85
267.716	-0.85
267.851	21.15
267.987	8.15
268.122	7.15
268.258	-16.85
268.393	0.15
268.528	6.15
268.664	-24.85
268.799	-17.85
268.934	-5.85
269.07	3.15
269.205	-12.85
269.34	19.15
269.476	-10.85
269.611	-13.85
269.746	11.15
269.881	16.15
270.017	19.15
270.152	-2.85
270.287	5.15
270.422	3.15
270.558	-4.85
270.693	-1.85
270.828	-12.85
270.963	-10.85
271.098	-12.85
271.234	-4.85
271.369	12.15
271.504	-3.85
271.639	-3.85
271.774	4.15
271.909	5.15
272.045	-18.85
272.18	8.15
272.315	-14.85
272.45	-2.85
272.585	-0.85
272.72	6.15
272.855	22.15
272.99	12.15
273.125	-7.85
273.26	-9.85
273.395	-16.85
273.53	-6.85
273.665	5.15
273.8	0.15
273.935	-2.85
274.07	10.15
274.205	10.15
274.34	-3.85
274.475	-1.85
274.61	5.15
274.745	-8.85
274.88	47.15
275.015	-10.85
275.15	7.15
275.285	24.15
275.42	10.15
275.555	10.15
275.69	6.15
275.825	-28.85
275.959	13.15
276.094	3.15
276.229	0.15
276.364	-16.85
276.499	-1.85
276.634	1.15
276.768	1.15
276.903	-3.85
277.038	4.15
277.173	2.15
277.308	14.15
277.442	-10.85
277.577	-18.85
277.712	-15.85
277.847	4.15
277.981	-2.85
278.116	-23.85
278.251	22.15
278.386	11.15
278.52	17.15
278.655	-1.85
278.79	16.15
278.924	10.15
279.059	8.15
279.194	-20.85
279.328	39.15
279.463	9.15
279.598	18.15
279.732	1.15
279.867	13.15
280.001	21.15
280.136	-5.85
280.271	16.15
280.405	16.15
280.54	6.15
280.674	-25.85
280.809	1.15
280.943	4.15
281.078	6.15
281.213	42.15
281.347	6.15
281.482	16.15
281.616	3.15
281.751	-4.85
281.885	-0.85
282.02	2.15
282.154	16.15
282.288	-18.85
282.423	-14.85
282.557	3.15
282.692	1.15
282.826	-1.85
282.961	10.15
283.095	3.15
283.229	-5.85
283.364	-6.85
283.498	11.15
283.633	13.15
283.767	10.15
283.901	-6.85
284.036	1.15
284.17	-12.85
284.304	2.15
284.439	-2.85
284.573	1.15
284.707	18.15
284.842	3.15
284.976	-24.85
285.11	-24.85
285.244	-9.85
285.379	51.15
285.513	7.15
285.647	6.15
285.781	1.15
285.916	16.15
286.05	-18.85
286.184	24.15
286.318	0.15
286.453	-10.85
286.587	-22.85
286.721	16.15
286.855	2.15
286.989	15.15
287.123	-3.85
287.258	-10.85
287.392	-1.85
287.526	22.15
287.66	3.15
287.794	-1.85
287.928	-8.85
288.062	8.15
288.196	0.15
288.33	-2.85
288.464	8.15
288.598	10.15
288.733	-0.85
288.867	13.15
289.001	-1.85
289.135	-0.85
289.269	-2.85
289.403	-1.85
289.537	9.15
289.671	14.15
289.805	-9.85
289.939	19.15
290.073	-1.85
290.207	26.15
290.34	8.15
290.474	20.15
290.608	21.15
290.742	2.15
290.876	-11.85
291.01	4.15
291.144	12.15
291.278	25.15
291.412	10.15
291.546	3.15
291.679	-8.85
291.813	-17.85
291.947	-10.85
292.081	10.15
292.215	0.15
292.349	7.15
292.482	5.15
292.616	-5.85
292.75	9.15
292.884	21.15
293.018	-6.85
293.151	-18.85
293.285	-9.85
293.419	-18.85
293.553	-15.85
293.686	-10.85
293.82	11.15
293.954	18.15
294.088	27.15
294.221	-6.85
294.355	-20.85
294.489	6.15
294.622	-3.85
294.756	3.15
294.89	4.15
295.023	16.15
295.157	19.15
295.291	8.15
295.424	22.15
295.558	18.15
295.691	11.15
295.825	-11.85
295.959	6.15
296.092	0.15
296.226	-8.85
296.359	-6.85
296.493	10.15
296.627	4.15
296.76	-11.85
296.894	-13.85
297.027	9.15
297.161	8.15
297.294	-0.85
297.428	-1.85
297.561	14.15
297.695	-8.85
297.828	-21.85
297.962	-13.85
298.095	-0.85
298.229	-2.85
298.362	-17.85
298.495	-7.85
298.629	0.15
298.762	-2.85
298.896	12.15
299.029	-12.85
299.162	-0.85
299.296	-0.85
299.429	-1.85
299.563	-2.85
299.696	4.15
299.829	12.15
299.963	7.15
300.096	5.15
300.229	6.15
300.363	-14.85
300.496	6.15
300.629	-13.85
300.763	3.15
300.896	1.15
301.029	2.15
301.162	-4.85
301.296	-8.85
301.429	0.15
301.562	-25.85
301.695	28.15
301.829	25.15
301.962	19.15
302.095	-2.85
302.228	-6.85
302.362	-2.85
302.495	-18.85
302.628	-1.85
302.761	-2.85
302.894	-3.85
303.027	4.15
303.161	-18.85
303.294	2.15
303.427	7.15
303.56	5.15
303.693	4.15
303.826	8.15
303.959	-6.85
304.092	-5.85
304.225	-6.85
304.359	8.15
304.492	1.15
304.625	-5.85
304.758	10.15
304.891	-11.85
305.024	-2.85
305.157	-0.85
305.29	-6.85
305.423	7.15
305.556	8.15
305.689	12.15
305.822	-1.85
305.955	-0.85
306.088	-14.85
306.221	7.15
306.354	11.15
306.487	-12.85
306.62	-17.85
306.752	-18.85
306.885	2.15
307.018	-2.85
307.151	9.15
307.284	15.15
307.417	-12.85
307.55	2.15
307.683	-16.85
307.816	2.15
307.948	-2.85
308.081	15.15
308.214	-1.85
308.347	28.15
308.48	1.15
308.613	-19.85
308.745	1.15
308.878	-1.85
309.011	-6.85
309.144	0.15
309.277	4.15
309.409	23.15
309.542	-5.85
309.675	6.15
309.808	7.15
309.94	16.15
310.073	-2.85
310.206	-1.85
310.339	2.15
310.471	-12.85
310.604	12.15
310.737	5.15
310.869	-4.85
311.002	-6.85
311.135	5.15
311.267	-8.85
311.4	6.15
311.533	21.15
311.665	-8.85
311.798	-2.85
311.93	13.15
312.063	29.15
312.196	33.15
312.328	57.15
312.461	37.15
312.593	27.15
312.726	27.15
312.859	96.15
312.991	161.15
313.124	25.15
313.256	11.15
313.389	18.15
313.521	4.15
313.654	-4.85
313.786	-12.85
313.919	-5.85
314.051	4.15
314.184	14.15
314.316	2.15
314.449	-10.85
314.581	11.15
314.714	1.15
314.846	-6.85
314.978	-6.85
315.111	-11.85
315.243	-8.85
315.376	-4.85
315.508	10.15
315.641	20.15
315.773	11.15
315.905	13.15
316.038	20.15
316.17	7.15
316.302	-4.85
316.435	-7.85
316.567	17.15
316.699	28.15
316.832	-0.85
316.964	-6.85
317.096	-3.85
317.229	0.15
317.361	-14.85
317.493	-2.85
317.625	-19.85
317.758	7.15
317.89	10.15
318.022	-5.85
318.155	-4.85
318.287	6.15
318.419	7.15
318.551	-1.85
318.683	-0.85
318.816	2.15
318.948	8.15
319.08	2.15
319.212	-4.85
319.344	-2.85
319.477	8.15
319.609	10.15
319.741	15.15
319.873	-13.85
320.005	-1.85
320.137	2.15
320.269	-15.85
320.401	9.15
320.534	-8.85
320.666	-11.85
320.798	-20.85
320.93	-1.85
321.062	-29.85
321.194	-5.85
321.326	-3.85
321.458	6.15
321.59	-12.85
321.722	-5.85
321.854	-9.85
321.986	6.15
322.118	9.15
322.25	-9.85
322.382	-14.85
322.514	6.15
322.646	-16.85
322.778	4.15
322.91	2.15
323.042	-2.85
323.174	-17.85
323.306	-12.85
323.438	-22.85
323.57	4.15
323.702	0.15
323.834	-7.85
323.966	-21.85
324.097	-11.85
324.229	29.15
324.361	22.15
324.493	-17.85
324.625	-7.85
324.757	1.15
324.889	-2.85
325.021	9.15
325.152	30.15
325.284	15.15
325.416	-1.85
325.548	1.15
325.68	-3.85
325.811	26.15
325.943	16.15
326.075	-9.85
326.207	0.15
326.339	24.15
326.47	-0.85
326.602	2.15
326.734	18.15
326.866	5.15
326.997	-0.85
327.129	2.15
327.261	-18.85
327.392	-26.85
327.524	-0.85
327.656	3.15
327.787	2.15
327.919	-0.85
328.051	3.15
328.182	13.15
328.314	15.15
328.446	6.15
328.577	10.15
328.709	21.15
328.841	-13.85
328.972	0.15
329.104	-7.85
329.235	0.15
329.367	-3.85
329.499	3.15
329.63	12.15
329.762	6.15
329.893	16.15
330.025	7.15
330.156	-5.85
330.288	6.15
330.419	12.15
330.551	17.15
330.683	-3.85
330.814	-26.85
330.946	-6.85
331.077	-12.85
331.208	10.15
331.34	-7.85
331.471	-25.85
331.603	-10.85
331.734	-19.85
331.866	-11.85
331.997	-3.85
332.129	2.15
332.26	-1.85
332.392	-4.85
332.523	9.15
332.654	-11.85
332.786	-7.85
332.917	-7.85
333.048	8.15
333.18	33.15
333.311	13.15
333.443	18.15
333.574	-3.85
333.705	42.15
333.837	50.15
333.968	111.15
334.099	234.15
334.231	204.15
334.362	68.15
334.493	27.15
334.624	22.15
334.756	13.15
334.887	21.15
335.018	3.15
335.15	19.15
335.281	1.15
335.412	19.15
335.543	4.15
335.675	-1.85
335.806	13.15
335.937	13.15
336.068	17.15
336.199	39.15
336.331	3.15
336.462	-5.85
336.593	7.15
336.724	-14.85
336.855	-5.85
336.986	36.15
337.118	17.15
337.249	19.15
337.38	5.15
337.511	-4.85
337.642	9.15
337.773	22.15
337.904	10.15
338.035	14.15
338.166	2.15
338.298	12.15
338.429	3.15
338.56	23.15
338.691	14.15
338.822	8.15
338.953	6.15
339.084	28.15
339.215	15.15
339.346	7.15
339.477	10.15
339.608	2.15
339.739	8.15
339.87	23.15
340.001	-1.85
340.132	22.15
340.263	10.15
340.394	9.15
340.525	13.15
340.656	2.15
340.787	1.15
340.918	19.15
341.049	23.15
341.179	14.15
341.31	4.15
341.441	6.15
341.572	11.15
341.703	12.15
341.834	-7.85
341.965	12.15
342.096	-7.85
342.227	6.15
342.357	-4.85
342.488	4.15
342.619	0.15
342.75	17.15
342.881	6.15
343.012	17.15
343.142	39.15
343.273	2.15
343.404	7.15
343.535	45.15
343.666	20.15
343.796	15.15
343.927	17.15
344.058	23.15
344.189	27.15
344.319	24.15
344.45	23.15
344.581	16.15
344.712	7.15
344.842	21.15
344.973	35.15
345.104	20.15
345.234	15.15
345.365	18.15
345.496	14.15
345.626	20.15
345.757	30.15
345.888	11.15
346.018	36.15
346.149	-4.85
346.28	32.15
346.41	8.15
346.541	23.15
346.672	20.15
346.802	29.15
346.933	20.15
347.063	20.15
347.194	22.15
347.325	34.15
347.455	49.15
347.586	36.15
347.716	18.15
347.847	33.15
347.977	19.15
348.108	41.15
348.238	44.15
348.369	33.15
348.499	38.15
348.63	26.15
348.76	47.15
348.891	58.15
349.021	61.15
349.152	57.15
349.282	52.15
349.413	41.15
349.543	50.15
349.674	18.15
349.804	47.15
349.935	17.15
350.065	23.15
350.196	24.15
350.326	34.15
350.456	24.15
350.587	25.15
350.717	27.15
350.848	38.15
350.978	26.15
351.108	6.15
351.239	44.15
351.369	26.15
351.499	19.15
351.63	30.15
351.76	11.15
351.89	24.15
352.021	29.15
352.151	19.15
352.281	32.15
352.412	28.15
352.542	23.15
352.672	13.15
352.803	20.15
352.933	17.15
353.063	11.15
353.193	28.15
353.324	19.15
353.454	32.15
353.584	29.15
353.714	28.15
353.845	12.15
353.975	-5.85
354.105	15.15
354.235	38.15
354.365	31.15
354.496	30.15
354.626	32.15
354.756	19.15
354.886	15.15
355.016	14.15
355.146	17.15
355.277	19.15
355.407	21.15
355.537	18.15
355.667	26.15
355.797	30.15
355.927	24.15
356.057	26.15
356.187	8.15
356.318	19.15
356.448	33.15
356.578	16.15
356.708	28.15
356.838	31.15
356.968	28.15
357.098	28.15
357.228	40.15
357.358	19.15
357.488	16.15
357.618	52.15
357.748	38.15
357.878	18.15
358.008	11.15
358.138	14.15
358.268	15.15
358.398	40.15
358.528	1.15
358.658	28.15
358.788	31.15
358.918	36.15
359.048	15.15
359.178	41.15
359.308	27.15
359.438	41.15
359.568	31.15
359.698	38.15
359.827	24.15
359.957	10.15
360.087	20.15
360.217	3.15
360.347	40.15
360.477	28.15
360.607	23.15
360.737	28.15
360.866	25.15
360.996	11.15
361.126	24.15
361.256	33.15
361.386	51.15
361.516	38.15
361.645	17.15
361.775	43.15
361.905	23.15
362.035	39.15
362.165	50.15
362.294	40.15
362.424	48.15
362.554	28.15
362.684	32.15
362.813	53.15
362.943	57.15
363.073	32.15
363.203	60.15
363.332	73.15
363.462	83.15
363.592	86.15
363.721	127.15
363.851	155.15
363.981	196.15
364.111	261.15
364.24	318.15
364.37	485.15
364.5	861.15
364.629	1845.15
364.759	3818.15
364.888	6247.15
365.018	9419.15
365.148	14820.15
365.277	12990.15
365.407	4750.15
365.537	3116.15
365.666	4040.15
365.796	1785.15
365.925	798.15
366.055	757.15
366.184	1028.15
366.314	1375.15
366.444	2491.15
366.573	2146.15
366.703	668.15
366.832	222.15
366.962	99.15
367.091	77.15
367.221	62.15
367.35	51.15
367.48	55.15
367.609	45.15
367.739	57.15
367.868	32.15
367.998	37.15
368.127	27.15
368.257	51.15
368.386	56.15
368.516	50.15
368.645	22.15
368.775	51.15
368.904	35.15
369.033	21.15
369.163	23.15
369.292	44.15
369.422	27.15
369.551	36.15
369.68	22.15
369.81	44.15
369.939	25.15
370.069	45.15
370.198	33.15
370.327	32.15
370.457	35.15
370.586	47.15
370.715	35.15
370.845	34.15
370.974	31.15
371.103	33.15
371.233	55.15
371.362	50.15
371.491	19.15
371.621	65.15
371.75	45.15
371.879	32.15
372.008	53.15
372.138	33.15
372.267	64.15
372.396	38.15
372.525	38.15
372.655	26.15
372.784	16.15
372.913	21.15
373.042	19.15
373.172	38.15
373.301	1.15
373.43	19.15
373.559	14.15
373.688	32.15
373.818	25.15
373.947	24.15
374.076	6.15
374.205	22.15
374.334	13.15
374.463	-0.85
374.593	21.15
374.722	22.15
374.851	29.15
374.98	15.15
375.109	34.15
375.238	34.15
375.367	36.15
375.496	-7.85
375.625	0.15
375.755	35.15
375.884	38.15
376.013	38.15
376.142	-6.85
376.271	18.15
376.4	20.15
376.529	22.15
376.658	20.15
376.787	25.15
376.916	38.15
377.045	6.15
377.174	25.15
377.303	12.15
377.432	37.15
377.561	21.15
377.69	12.15
377.819	28.15
377.948	22.15
378.077	19.15
378.206	15.15
378.335	11.15
378.464	-13.85
378.593	38.15
378.722	31.15
378.851	21.15
378.98	50.15
379.108	10.15
379.237	5.15
379.366	25.15
379.495	24.15
379.624	27.15
379.753	19.15
379.882	9.15
380.011	-3.85
380.14	10.15
380.268	19.15
380.397	11.15
380.526	36.15
380.655	-5.85
380.784	4.15
380.913	22.15
381.041	7.15
381.17	-6.85
381.299	14.15
381.428	23.15
381.557	39.15
381.685	-5.85
381.814	13.15
381.943	15.15
382.072	-3.85
382.2	14.15
382.329	13.15
382.458	29.15
382.587	34.15
382.715	38.15
382.844	6.15
382.973	36.15
383.102	3.15
383.23	-7.85
383.359	5.15
383.488	17.15
383.616	19.15
383.745	10.15
383.874	12.15
384.003	8.15
384.131	16.15
384.26	0.15
384.389	11.15
384.517	14.15
384.646	7.15
384.774	19.15
384.903	38.15
385.032	37.15
385.16	17.15
385.289	19.15
385.418	10.15
385.546	27.15
385.675	24.15
385.803	14.15
385.932	14.15
386.06	4.15
386.189	20.15
386.318	29.15
386.446	14.15
386.575	26.15
386.703	32.15
386.832	15.15
386.96	-4.85
387.089	28.15
387.217	24.15
387.346	15.15
387.474	19.15
387.603	26.15
387.731	23.15
387.86	12.15
387.988	34.15
388.117	36.15
388.245	13.15
388.374	10.15
388.502	22.15
388.631	6.15
388.759	1.15
388.888	16.15
389.016	7.15
389.144	22.15
389.273	8.15
389.401	-4.85
389.53	-8.85
389.658	19.15
389.786	1.15
389.915	23.15
390.043	9.15
390.172	33.15
390.3	60.15
390.428	37.15
390.557	15.15
390.685	23.15
390.813	33.15
390.942	50.15
391.07	10.15
391.198	10.15
391.327	10.15
391.455	11.15
391.583	35.15
391.712	32.15
391.84	14.15
391.968	15.15
392.096	15.15
392.225	-0.85
392.353	29.15
392.481	24.15
392.609	37.15
392.738	27.15
392.866	28.15
392.994	19.15
393.122	35.15
393.251	33.15
393.379	35.15
393.507	-2.85
393.635	8.15
393.764	29.15
393.892	32.15
394.02	14.15
394.148	26.15
394.276	22.15
394.404	24.15
394.533	27.15
394.661	38.15
394.789	38.15
394.917	34.15
395.045	25.15
395.173	12.15
395.302	33.15
395.43	18.15
395.558	35.15
395.686	37.15
395.814	39.15
395.942	27.15
396.07	27.15
396.198	13.15
396.326	30.15
396.454	42.15
396.582	33.15
396.711	26.15
396.839	31.15
396.967	15.15
397.095	8.15
397.223	27.15
397.351	36.15
397.479	15.15
397.607	30.15
397.735	50.15
397.863	53.15
397.991	43.15
398.119	32.15
398.247	41.15
398.375	76.15
398.503	54.15
398.631	59.15
398.759	43.15
398.887	45.15
399.015	38.15
399.143	51.15
399.271	52.15
399.399	71.15
399.526	77.15
399.654	79.15
399.782	61.15
399.91	79.15
400.038	82.15
400.166	66.15
400.294	89.15
400.422	83.15
400.55	104.15
400.678	112.15
400.805	102.15
400.933	110.15
401.061	130.15
401.189	124.15
401.317	151.15
401.445	110.15
401.573	59.15
401.7	45.15
401.828	37.15
401.956	52.15
402.084	44.15
402.212	43.15
402.34	47.15
402.467	17.15
402.595	43.15
402.723	58.15
402.851	60.15
402.978	34.15
403.106	70.15
403.234	84.15
403.362	111.15
403.489	120.15
403.617	157.15
403.745	191.15
403.873	277.15
404	577.15
404.128	1477.15
404.256	3914.15
404.384	5088.15
404.511	5357.15
404.639	7173.15
404.767	11386.15
404.894	14602.15
405.022	4925.15
405.15	1322.15
405.277	410.15
405.405	233.15
405.533	126.15
405.66	119.15
405.788	59.15
405.916	67.15
406.043	32.15
406.171	53.15
406.299	44.15
406.426	49.15
406.554	61.15
406.681	68.15
406.809	49.15
406.937	59.15
407.064	54.15
407.192	138.15
407.319	288.15
407.447	516.15
407.574	535.15
407.702	616.15
407.83	885.15
407.957	1613.15
408.085	923.15
408.212	282.15
408.34	93.15
408.467	60.15
408.595	51.15
408.722	47.15
408.85	43.15
408.977	35.15
409.105	18.15
409.232	29.15
409.36	35.15
409.487	46.15
409.615	30.15
409.742	34.15
409.87	29.15
409.997	30.15
410.125	47.15
410.252	54.15
410.379	12.15
410.507	49.15
410.634	39.15
410.762	39.15
410.889	42.15
411.017	34.15
411.144	37.15
411.271	25.15
411.399	19.15
411.526	25.15
411.653	2.15
411.781	22.15
411.908	27.15
412.036	12.15
412.163	23.15
412.29	10.15
412.418	31.15
412.545	22.15
412.672	2.15
412.8	28.15
412.927	16.15
413.054	60.15
413.182	25.15
413.309	9.15
413.436	13.15
413.564	21.15
413.691	21.15
413.818	25.15
413.945	10.15
414.073	20.15
414.2	29.15
414.327	26.15
414.454	37.15
414.582	23.15
414.709	6.15
414.836	9.15
414.963	22.15
415.091	22.15
415.218	19.15
415.345	23.15
415.472	31.15
415.6	17.15
415.727	27.15
415.854	40.15
415.981	25.15
416.108	30.15
416.236	21.15
416.363	32.15
416.49	19.15
416.617	34.15
416.744	39.15
416.871	19.15
416.998	31.15
417.126	33.15
417.253	11.15
417.38	26.15
417.507	25.15
417.634	21.15
417.761	29.15
417.888	38.15
418.015	30.15
418.143	32.15
418.27	48.15
418.397	13.15
418.524	26.15
418.651	25.15
418.778	44.15
