Data from LowRes_mercury_15_20_11_07_2024_HR4C61881__30__15-23-35-271.txt Node

Date: Thu Nov 07 15:23:35 EST 2024
User: crc00042
Spectrometer: HR4C6188
Trigger mode: 4
Integration Time (sec): 1.000000E-1
Scans to average: 1
Electric dark correction enabled: true
Nonlinearity correction enabled: false
Boxcar width: 0
XAxis mode: Wavelengths
Number of Pixels in Spectrum: 3648
>>>>>Begin Spectral Data<<<<<
245.66	-63.85
245.797	-63.85
245.934	-63.85
246.071	-75.85
246.208	14.15
246.344	10.15
246.481	-16.85
246.618	-12.85
246.755	12.15
246.892	-14.85
247.029	-16.85
247.165	-16.85
247.302	20.15
247.439	8.15
247.576	3.15
247.713	-10.85
247.849	28.15
247.986	7.15
248.123	8.15
248.26	-10.85
248.396	-1.85
248.533	3.15
248.67	-1.85
248.806	6.15
248.943	-4.85
249.08	9.15
249.216	8.15
249.353	-21.85
249.49	-7.85
249.626	3.15
249.763	-11.85
249.9	-2.85
250.036	5.15
250.173	31.15
250.309	17.15
250.446	11.15
250.582	4.15
250.719	-8.85
250.856	-4.85
250.992	9.15
251.129	11.15
251.265	-1.85
251.402	-3.85
251.538	-6.85
251.675	4.15
251.811	22.15
251.948	29.15
252.084	-5.85
252.221	0.15
252.357	-6.85
252.493	28.15
252.63	-1.85
252.766	16.15
252.903	2.15
253.039	14.15
253.175	-7.85
253.312	11.15
253.448	-17.85
253.585	-29.85
253.721	6.15
253.857	3.15
253.994	1.15
254.13	20.15
254.266	18.15
254.403	20.15
254.539	10.15
254.675	21.15
254.811	22.15
254.948	7.15
255.084	-9.85
255.22	-6.85
255.356	-3.85
255.493	-5.85
255.629	-17.85
255.765	0.15
255.901	8.15
256.037	18.15
256.174	12.15
256.31	0.15
256.446	-7.85
256.582	-8.85
256.718	8.15
256.854	16.15
256.991	11.15
257.127	30.15
257.263	3.15
257.399	6.15
257.535	-4.85
257.671	8.15
257.807	-26.85
257.943	-13.85
258.079	-11.85
258.215	-1.85
258.351	17.15
258.487	-4.85
258.623	12.15
258.759	11.15
258.895	-0.85
259.031	-3.85
259.167	-12.85
259.303	18.15
259.439	-7.85
259.575	0.15
259.711	0.15
259.847	-3.85
259.983	10.15
260.119	14.15
260.255	-3.85
260.391	22.15
260.527	-3.85
260.663	21.15
260.799	19.15
260.934	8.15
261.07	11.15
261.206	-6.85
261.342	-16.85
261.478	16.15
261.614	19.15
261.749	8.15
261.885	18.15
262.021	10.15
262.157	39.15
262.293	6.15
262.428	-6.85
262.564	6.15
262.7	15.15
262.836	17.15
262.971	15.15
263.107	10.15
263.243	40.15
263.378	10.15
263.514	-8.85
263.65	0.15
263.785	-3.85
263.921	2.15
264.057	19.15
264.192	19.15
264.328	30.15
264.464	9.15
264.599	15.15
264.735	18.15
264.871	-6.85
265.006	27.15
265.142	1.15
265.277	-9.85
265.413	8.15
265.548	14.15
265.684	17.15
265.819	13.15
265.955	-15.85
266.091	-2.85
266.226	-23.85
266.362	-0.85
266.497	15.15
266.633	7.15
266.768	-5.85
266.903	7.15
267.039	27.15
267.174	31.15
267.31	7.15
267.445	-0.85
267.581	1.15
267.716	19.15
267.851	-2.85
267.987	22.15
268.122	12.15
268.258	-15.85
268.393	-15.85
268.528	12.15
268.664	-4.85
268.799	-21.85
268.934	-16.85
269.07	-12.85
269.205	3.15
269.34	39.15
269.476	6.15
269.611	-11.85
269.746	11.15
269.881	-8.85
270.017	25.15
270.152	17.15
270.287	2.15
270.422	29.15
270.558	2.15
270.693	20.15
270.828	-12.85
270.963	-15.85
271.098	-3.85
271.234	-8.85
271.369	4.15
271.504	4.15
271.639	-7.85
271.774	1.15
271.909	-3.85
272.045	13.15
272.18	-1.85
272.315	-3.85
272.45	9.15
272.585	-7.85
272.72	1.15
272.855	18.15
272.99	20.15
273.125	7.15
273.26	-12.85
273.395	-9.85
273.53	3.15
273.665	11.15
273.8	13.15
273.935	6.15
274.07	6.15
274.205	6.15
274.34	10.15
274.475	7.15
274.61	30.15
274.745	6.15
274.88	16.15
275.015	-5.85
275.15	9.15
275.285	19.15
275.42	8.15
275.555	36.15
275.69	14.15
275.825	3.15
275.959	1.15
276.094	3.15
276.229	8.15
276.364	4.15
276.499	11.15
276.634	0.15
276.768	3.15
276.903	16.15
277.038	14.15
277.173	11.15
277.308	-1.85
277.442	-2.85
277.577	4.15
277.712	12.15
277.847	5.15
277.981	-1.85
278.116	-16.85
278.251	6.15
278.386	-1.85
278.52	11.15
278.655	12.15
278.79	18.15
278.924	11.15
279.059	30.15
279.194	-5.85
279.328	31.15
279.463	34.15
279.598	21.15
279.732	23.15
279.867	14.15
280.001	1.15
280.136	14.15
280.271	22.15
280.405	22.15
280.54	5.15
280.674	0.15
280.809	14.15
280.943	23.15
281.078	3.15
281.213	27.15
281.347	14.15
281.482	23.15
281.616	4.15
281.751	-5.85
281.885	-16.85
282.02	-6.85
282.154	16.15
282.288	3.15
282.423	-21.85
282.557	0.15
282.692	17.15
282.826	10.15
282.961	26.15
283.095	9.15
283.229	12.15
283.364	-2.85
283.498	11.15
283.633	8.15
283.767	7.15
283.901	2.15
284.036	20.15
284.17	-2.85
284.304	1.15
284.439	10.15
284.573	7.15
284.707	3.15
284.842	0.15
284.976	-6.85
285.11	-1.85
285.244	-3.85
285.379	45.15
285.513	3.15
285.647	31.15
285.781	0.15
285.916	4.15
286.05	-4.85
286.184	20.15
286.318	13.15
286.453	-11.85
286.587	-13.85
286.721	9.15
286.855	2.15
286.989	21.15
287.123	-10.85
287.258	2.15
287.392	10.15
287.526	9.15
287.66	6.15
287.794	23.15
287.928	8.15
288.062	9.15
288.196	10.15
288.33	28.15
288.464	36.15
288.598	5.15
288.733	23.15
288.867	38.15
289.001	13.15
289.135	4.15
289.269	-5.85
289.403	8.15
289.537	3.15
289.671	23.15
289.805	-2.85
289.939	-6.85
290.073	0.15
290.207	31.15
290.34	9.15
290.474	31.15
290.608	10.15
290.742	-0.85
290.876	11.15
291.01	11.15
291.144	19.15
291.278	14.15
291.412	3.15
291.546	4.15
291.679	12.15
291.813	19.15
291.947	-7.85
292.081	0.15
292.215	10.15
292.349	1.15
292.482	4.15
292.616	-5.85
292.75	12.15
292.884	14.15
293.018	5.15
293.151	-8.85
293.285	10.15
293.419	12.15
293.553	-17.85
293.686	-18.85
293.82	4.15
293.954	25.15
294.088	34.15
294.221	12.15
294.355	14.15
294.489	5.15
294.622	5.15
294.756	1.15
294.89	12.15
295.023	16.15
295.157	3.15
295.291	7.15
295.424	21.15
295.558	1.15
295.691	7.15
295.825	-4.85
295.959	4.15
296.092	1.15
296.226	5.15
296.359	5.15
296.493	18.15
296.627	18.15
296.76	15.15
296.894	8.15
297.027	1.15
297.161	-7.85
297.294	-19.85
297.428	6.15
297.561	28.15
297.695	-5.85
297.828	-9.85
297.962	16.15
298.095	-3.85
298.229	-0.85
298.362	-2.85
298.495	1.15
298.629	-4.85
298.762	9.15
298.896	4.15
299.029	0.15
299.162	-0.85
299.296	-1.85
299.429	-3.85
299.563	1.15
299.696	7.15
299.829	22.15
299.963	26.15
300.096	15.15
300.229	11.15
300.363	7.15
300.496	4.15
300.629	-7.85
300.763	-3.85
300.896	0.15
301.029	26.15
301.162	18.15
301.296	-12.85
301.429	-2.85
301.562	-19.85
301.695	1.15
301.829	24.15
301.962	31.15
302.095	13.15
302.228	6.15
302.362	15.15
302.495	2.15
302.628	-0.85
302.761	5.15
302.894	10.15
303.027	26.15
303.161	-5.85
303.294	-24.85
303.427	28.15
303.56	25.15
303.693	11.15
303.826	-5.85
303.959	8.15
304.092	-1.85
304.225	9.15
304.359	12.15
304.492	17.15
304.625	-7.85
304.758	-2.85
304.891	-8.85
305.024	-7.85
305.157	8.15
305.29	10.15
305.423	10.15
305.556	12.15
305.689	13.15
305.822	7.15
305.955	-5.85
306.088	-3.85
306.221	-0.85
306.354	-9.85
306.487	-19.85
306.62	6.15
306.752	-1.85
306.885	7.15
307.018	-4.85
307.151	6.15
307.284	18.15
307.417	4.15
307.55	14.15
307.683	7.15
307.816	25.15
307.948	20.15
308.081	30.15
308.214	9.15
308.347	19.15
308.48	-3.85
308.613	2.15
308.745	15.15
308.878	12.15
309.011	-0.85
309.144	8.15
309.277	14.15
309.409	11.15
309.542	14.15
309.675	15.15
309.808	20.15
309.94	11.15
310.073	-1.85
310.206	7.15
310.339	3.15
310.471	-25.85
310.604	17.15
310.737	-0.85
310.869	-7.85
311.002	-4.85
311.135	9.15
311.267	4.15
311.4	-5.85
311.533	18.15
311.665	-0.85
311.798	-12.85
311.93	21.15
312.063	29.15
312.196	60.15
312.328	90.15
312.461	46.15
312.593	36.15
312.726	31.15
312.859	95.15
312.991	154.15
313.124	52.15
313.256	21.15
313.389	4.15
313.521	-2.85
313.654	11.15
313.786	-5.85
313.919	-0.85
314.051	10.15
314.184	15.15
314.316	17.15
314.449	-3.85
314.581	-5.85
314.714	-1.85
314.846	7.15
314.978	-4.85
315.111	9.15
315.243	18.15
315.376	0.15
315.508	1.15
315.641	-9.85
315.773	8.15
315.905	10.15
316.038	-3.85
316.17	-0.85
316.302	24.15
316.435	8.15
316.567	12.15
316.699	11.15
316.832	-8.85
316.964	-8.85
317.096	1.15
317.229	-3.85
317.361	-11.85
317.493	3.15
317.625	-4.85
317.758	13.15
317.89	17.15
318.022	27.15
318.155	-6.85
318.287	9.15
318.419	18.15
318.551	14.15
318.683	15.15
318.816	3.15
318.948	-2.85
319.08	5.15
319.212	12.15
319.344	9.15
319.477	4.15
319.609	-3.85
319.741	23.15
319.873	11.15
320.005	0.15
320.137	8.15
320.269	-0.85
320.401	-7.85
320.534	-7.85
320.666	-24.85
320.798	-19.85
320.93	7.15
321.062	5.15
321.194	-4.85
321.326	12.15
321.458	20.15
321.59	7.15
321.722	-4.85
321.854	0.15
321.986	17.15
322.118	27.15
322.25	-4.85
322.382	23.15
322.514	9.15
322.646	-0.85
322.778	29.15
322.91	-0.85
323.042	0.15
323.174	11.15
323.306	-9.85
323.438	-26.85
323.57	-4.85
323.702	5.15
323.834	12.15
323.966	4.15
324.097	13.15
324.229	-3.85
324.361	22.15
324.493	0.15
324.625	-3.85
324.757	22.15
324.889	14.15
325.021	12.15
325.152	27.15
325.284	22.15
325.416	2.15
325.548	22.15
325.68	-9.85
325.811	34.15
325.943	23.15
326.075	-17.85
326.207	4.15
326.339	10.15
326.47	7.15
326.602	21.15
326.734	23.15
326.866	15.15
326.997	-5.85
327.129	2.15
327.261	1.15
327.392	-9.85
327.524	7.15
327.656	-5.85
327.787	16.15
327.919	7.15
328.051	-6.85
328.182	15.15
328.314	13.15
328.446	18.15
328.577	44.15
328.709	16.15
328.841	-11.85
328.972	3.15
329.104	2.15
329.235	-0.85
329.367	-4.85
329.499	-18.85
329.63	2.15
329.762	12.15
329.893	29.15
330.025	-10.85
330.156	-10.85
330.288	22.15
330.419	30.15
330.551	18.15
330.683	7.15
330.814	-2.85
330.946	12.15
331.077	-5.85
331.208	-11.85
331.34	-9.85
331.471	-4.85
331.603	-4.85
331.734	-11.85
331.866	-11.85
331.997	-12.85
332.129	-9.85
332.26	10.15
332.392	10.15
332.523	13.15
332.654	-4.85
332.786	8.15
332.917	-3.85
333.048	19.15
333.18	22.15
333.311	-3.85
333.443	10.15
333.574	13.15
333.705	22.15
333.837	31.15
333.968	120.15
334.099	241.15
334.231	204.15
334.362	56.15
334.493	35.15
334.624	28.15
334.756	23.15
334.887	17.15
335.018	9.15
335.15	17.15
335.281	18.15
335.412	11.15
335.543	14.15
335.675	17.15
335.806	28.15
335.937	12.15
336.068	-0.85
336.199	44.15
336.331	9.15
336.462	11.15
336.593	24.15
336.724	-0.85
336.855	16.15
336.986	10.15
337.118	22.15
337.249	18.15
337.38	14.15
337.511	-6.85
337.642	14.15
337.773	10.15
337.904	19.15
338.035	10.15
338.166	-7.85
338.298	10.15
338.429	18.15
338.56	36.15
338.691	38.15
338.822	9.15
338.953	5.15
339.084	13.15
339.215	19.15
339.346	28.15
339.477	12.15
339.608	20.15
339.739	22.15
339.87	26.15
340.001	13.15
340.132	35.15
340.263	24.15
340.394	27.15
340.525	7.15
340.656	-11.85
340.787	-9.85
340.918	23.15
341.049	4.15
341.179	24.15
341.31	2.15
341.441	20.15
341.572	15.15
341.703	15.15
341.834	2.15
341.965	19.15
342.096	13.15
342.227	20.15
342.357	6.15
342.488	22.15
342.619	10.15
342.75	9.15
342.881	18.15
343.012	35.15
343.142	44.15
343.273	21.15
343.404	27.15
343.535	56.15
343.666	45.15
343.796	37.15
343.927	27.15
344.058	37.15
344.189	25.15
344.319	35.15
344.45	23.15
344.581	18.15
344.712	12.15
344.842	21.15
344.973	4.15
345.104	38.15
345.234	16.15
345.365	6.15
345.496	29.15
345.626	45.15
345.757	29.15
345.888	4.15
346.018	20.15
346.149	31.15
346.28	40.15
346.41	24.15
346.541	26.15
346.672	22.15
346.802	40.15
346.933	15.15
347.063	22.15
347.194	25.15
347.325	46.15
347.455	61.15
347.586	26.15
347.716	27.15
347.847	49.15
347.977	45.15
348.108	42.15
348.238	51.15
348.369	36.15
348.499	50.15
348.63	47.15
348.76	75.15
348.891	41.15
349.021	65.15
349.152	60.15
349.282	55.15
349.413	30.15
349.543	57.15
349.674	22.15
349.804	41.15
349.935	24.15
350.065	31.15
350.196	36.15
350.326	27.15
350.456	20.15
350.587	32.15
350.717	11.15
350.848	22.15
350.978	18.15
351.108	8.15
351.239	49.15
351.369	23.15
351.499	20.15
351.63	37.15
351.76	28.15
351.89	9.15
352.021	23.15
352.151	11.15
352.281	37.15
352.412	44.15
352.542	25.15
352.672	27.15
352.803	25.15
352.933	29.15
353.063	44.15
353.193	45.15
353.324	11.15
353.454	26.15
353.584	39.15
353.714	24.15
353.845	13.15
353.975	1.15
354.105	20.15
354.235	25.15
354.365	19.15
354.496	21.15
354.626	38.15
354.756	29.15
354.886	19.15
355.016	29.15
355.146	17.15
355.277	15.15
355.407	12.15
355.537	20.15
355.667	24.15
355.797	30.15
355.927	25.15
356.057	25.15
356.187	19.15
356.318	28.15
356.448	33.15
356.578	21.15
356.708	33.15
356.838	26.15
356.968	38.15
357.098	17.15
357.228	35.15
357.358	17.15
357.488	12.15
357.618	63.15
357.748	37.15
357.878	22.15
358.008	23.15
358.138	34.15
358.268	24.15
358.398	31.15
358.528	-4.85
358.658	19.15
358.788	30.15
358.918	40.15
359.048	29.15
359.178	38.15
359.308	39.15
359.438	51.15
359.568	41.15
359.698	40.15
359.827	28.15
359.957	33.15
360.087	37.15
360.217	20.15
360.347	45.15
360.477	34.15
360.607	11.15
360.737	39.15
360.866	25.15
360.996	20.15
361.126	17.15
361.256	42.15
361.386	30.15
361.516	29.15
361.645	22.15
361.775	43.15
361.905	41.15
362.035	57.15
362.165	40.15
362.294	47.15
362.424	47.15
362.554	55.15
362.684	44.15
362.813	36.15
362.943	53.15
363.073	36.15
363.203	50.15
363.332	73.15
363.462	80.15
363.592	100.15
363.721	129.15
363.851	171.15
363.981	233.15
364.111	241.15
364.24	320.15
364.37	500.15
364.5	865.15
364.629	1847.15
364.759	3864.15
364.888	6323.15
365.018	9488.15
365.148	14858.15
365.277	13053.15
365.407	4808.15
365.537	3124.15
365.666	4104.15
365.796	1836.15
365.925	799.15
366.055	759.15
366.184	1016.15
366.314	1425.15
366.444	2524.15
366.573	2142.15
366.703	671.15
366.832	216.15
366.962	117.15
367.091	101.15
367.221	71.15
367.35	65.15
367.48	90.15
367.609	49.15
367.739	60.15
367.868	44.15
367.998	52.15
368.127	57.15
368.257	80.15
368.386	60.15
368.516	75.15
368.645	41.15
368.775	39.15
368.904	43.15
369.033	47.15
369.163	28.15
369.292	55.15
369.422	45.15
369.551	53.15
369.68	50.15
369.81	54.15
369.939	18.15
370.069	48.15
370.198	49.15
370.327	31.15
370.457	50.15
370.586	44.15
370.715	28.15
370.845	35.15
370.974	32.15
371.103	66.15
371.233	54.15
371.362	53.15
371.491	29.15
371.621	49.15
371.75	43.15
371.879	18.15
372.008	48.15
372.138	46.15
372.267	66.15
372.396	46.15
372.525	60.15
372.655	27.15
372.784	20.15
372.913	27.15
373.042	36.15
373.172	22.15
373.301	-3.85
373.43	19.15
373.559	32.15
373.688	34.15
373.818	33.15
373.947	19.15
374.076	20.15
374.205	32.15
374.334	26.15
374.463	22.15
374.593	20.15
374.722	37.15
374.851	25.15
374.98	13.15
375.109	19.15
375.238	36.15
375.367	48.15
375.496	9.15
375.625	26.15
375.755	21.15
375.884	39.15
376.013	24.15
376.142	10.15
376.271	4.15
376.4	18.15
376.529	34.15
376.658	19.15
376.787	40.15
376.916	23.15
377.045	12.15
377.174	6.15
377.303	19.15
377.432	33.15
377.561	24.15
377.69	28.15
377.819	38.15
377.948	11.15
378.077	20.15
378.206	-9.85
378.335	8.15
378.464	1.15
378.593	40.15
378.722	27.15
378.851	21.15
378.98	33.15
379.108	12.15
379.237	4.15
379.366	29.15
379.495	27.15
379.624	14.15
379.753	21.15
379.882	27.15
380.011	12.15
380.14	-3.85
380.268	9.15
380.397	8.15
380.526	39.15
380.655	2.15
380.784	-1.85
380.913	16.15
381.041	11.15
381.17	10.15
381.299	35.15
381.428	40.15
381.557	22.15
381.685	24.15
381.814	39.15
381.943	15.15
382.072	-7.85
382.2	18.15
382.329	29.15
382.458	26.15
382.587	28.15
382.715	42.15
382.844	21.15
382.973	3.15
383.102	13.15
383.23	18.15
383.359	1.15
383.488	29.15
383.616	10.15
383.745	-3.85
383.874	14.15
384.003	24.15
384.131	23.15
384.26	17.15
384.389	32.15
384.517	15.15
384.646	14.15
384.774	12.15
384.903	24.15
385.032	26.15
385.16	12.15
385.289	13.15
385.418	22.15
385.546	26.15
385.675	26.15
385.803	34.15
385.932	27.15
386.06	17.15
386.189	33.15
386.318	25.15
386.446	30.15
386.575	36.15
386.703	23.15
386.832	15.15
386.96	14.15
387.089	34.15
387.217	42.15
387.346	15.15
387.474	12.15
387.603	0.15
387.731	22.15
387.86	23.15
387.988	30.15
388.117	32.15
388.245	22.15
388.374	3.15
388.502	40.15
388.631	19.15
388.759	16.15
388.888	27.15
389.016	23.15
389.144	22.15
389.273	26.15
389.401	11.15
389.53	15.15
389.658	32.15
389.786	12.15
389.915	14.15
390.043	22.15
390.172	16.15
390.3	53.15
390.428	63.15
390.557	21.15
390.685	45.15
390.813	56.15
390.942	36.15
391.07	28.15
391.198	13.15
391.327	9.15
391.455	-4.85
391.583	40.15
391.712	36.15
391.84	26.15
391.968	17.15
392.096	6.15
392.225	6.15
392.353	31.15
392.481	28.15
392.609	49.15
392.738	32.15
392.866	24.15
392.994	10.15
393.122	61.15
393.251	6.15
393.379	8.15
393.507	4.15
393.635	10.15
393.764	23.15
393.892	24.15
394.02	14.15
394.148	12.15
394.276	37.15
394.404	40.15
394.533	35.15
394.661	34.15
394.789	50.15
394.917	36.15
395.045	30.15
395.173	19.15
395.302	46.15
395.43	32.15
395.558	43.15
395.686	33.15
395.814	35.15
395.942	14.15
396.07	29.15
396.198	44.15
396.326	42.15
396.454	40.15
396.582	44.15
396.711	33.15
396.839	44.15
396.967	44.15
397.095	27.15
397.223	28.15
397.351	39.15
397.479	44.15
397.607	42.15
397.735	61.15
397.863	55.15
397.991	43.15
398.119	41.15
398.247	39.15
398.375	41.15
398.503	51.15
398.631	54.15
398.759	82.15
398.887	65.15
399.015	44.15
399.143	59.15
399.271	56.15
399.399	59.15
399.526	65.15
399.654	89.15
399.782	61.15
399.91	81.15
400.038	91.15
400.166	92.15
400.294	98.15
400.422	74.15
400.55	116.15
400.678	104.15
400.805	114.15
400.933	147.15
401.061	129.15
401.189	102.15
401.317	142.15
401.445	111.15
401.573	86.15
401.7	50.15
401.828	47.15
401.956	68.15
402.084	53.15
402.212	60.15
402.34	32.15
402.467	52.15
402.595	44.15
402.723	46.15
402.851	72.15
402.978	31.15
403.106	81.15
403.234	85.15
403.362	124.15
403.489	109.15
403.617	151.15
403.745	192.15
403.873	270.15
404	560.15
404.128	1493.15
404.256	3967.15
404.384	5152.15
404.511	5512.15
404.639	7284.15
404.767	11571.15
404.894	14691.15
405.022	4961.15
405.15	1337.15
405.277	428.15
405.405	236.15
405.533	143.15
405.66	116.15
405.788	77.15
405.916	73.15
406.043	40.15
406.171	47.15
406.299	64.15
406.426	71.15
406.554	58.15
406.681	61.15
406.809	40.15
406.937	58.15
407.064	51.15
407.192	134.15
407.319	323.15
407.447	510.15
407.574	534.15
407.702	627.15
407.83	870.15
407.957	1615.15
408.085	957.15
408.212	278.15
408.34	101.15
408.467	53.15
408.595	56.15
408.722	76.15
408.85	67.15
408.977	41.15
409.105	26.15
409.232	37.15
409.36	43.15
409.487	47.15
409.615	21.15
409.742	41.15
409.87	20.15
409.997	47.15
410.125	41.15
410.252	39.15
410.379	22.15
410.507	41.15
410.634	34.15
410.762	35.15
410.889	49.15
411.017	51.15
411.144	23.15
411.271	21.15
411.399	34.15
411.526	23.15
411.653	40.15
411.781	42.15
411.908	41.15
412.036	18.15
412.163	21.15
412.29	56.15
412.418	24.15
412.545	36.15
412.672	26.15
412.8	46.15
412.927	51.15
413.054	34.15
413.182	15.15
413.309	28.15
413.436	1.15
413.564	56.15
413.691	42.15
413.818	49.15
413.945	10.15
414.073	23.15
414.2	16.15
414.327	26.15
414.454	29.15
414.582	36.15
414.709	16.15
414.836	39.15
414.963	50.15
415.091	35.15
415.218	38.15
415.345	36.15
415.472	22.15
415.6	21.15
415.727	48.15
415.854	31.15
415.981	25.15
416.108	27.15
416.236	24.15
416.363	44.15
416.49	24.15
416.617	26.15
416.744	47.15
416.871	56.15
416.998	28.15
417.126	29.15
417.253	34.15
417.38	33.15
417.507	20.15
417.634	52.15
417.761	45.15
417.888	47.15
418.015	37.15
418.143	40.15
418.27	46.15
418.397	20.15
418.524	22.15
418.651	31.15
418.778	62.15
418.905	72.15
419.032	40.15
