Data from LowRes_mercury_15_20_11_07_2024_HR4C61881__51__15-23-37-373.txt Node

Date: Thu Nov 07 15:23:37 EST 2024
User: crc00042
Spectrometer: HR4C6188
Trigger mode: 4
Integration Time (sec): 1.000000E-1
Scans to average: 1
Electric dark correction enabled: true
Nonlinearity correction enabled: false
Boxcar width: 0
XAxis mode: Wavelengths
Number of Pixels in Spectrum: 3648
>>>>>Begin Spectral Data<<<<<
245.66	-62.69
245.797	-62.69
245.934	-62.69
246.071	-74.69
246.208	4.31
246.344	4.31
246.481	-9.69
246.618	-10.69
246.755	-9.69
246.892	-7.69
247.029	-5.69
247.165	9.31
247.302	12.31
247.439	3.31
247.576	7.31
247.713	-4.69
247.849	27.31
247.986	-15.69
248.123	11.31
248.26	-6.69
248.396	10.31
248.533	10.31
248.67	-8.69
248.806	5.31
248.943	-1.69
249.08	-5.69
249.216	9.31
249.353	-14.69
249.49	0.31
249.626	19.31
249.763	-7.69
249.9	-6.69
250.036	-6.69
250.173	-5.69
250.309	-11.69
250.446	5.31
250.582	-5.69
250.719	-0.69
250.856	6.31
250.992	4.31
251.129	-12.69
251.265	-20.69
251.402	-11.69
251.538	-7.69
251.675	4.31
251.811	16.31
251.948	24.31
252.084	22.31
252.221	7.31
252.357	15.31
252.493	19.31
252.63	-5.69
252.766	-1.69
252.903	2.31
253.039	0.31
253.175	14.31
253.312	10.31
253.448	0.31
253.585	-17.69
253.721	4.31
253.857	5.31
253.994	5.31
254.13	-3.69
254.266	-4.69
254.403	1.31
254.539	3.31
254.675	11.31
254.811	9.31
254.948	6.31
255.084	7.31
255.22	-17.69
255.356	6.31
255.493	-2.69
255.629	10.31
255.765	-2.69
255.901	10.31
256.037	-1.69
256.174	-6.69
256.31	-1.69
256.446	-1.69
256.582	-10.69
256.718	16.31
256.854	13.31
256.991	11.31
257.127	11.31
257.263	-3.69
257.399	22.31
257.535	4.31
257.671	24.31
257.807	-10.69
257.943	-4.69
258.079	-14.69
258.215	-30.69
258.351	13.31
258.487	9.31
258.623	34.31
258.759	2.31
258.895	-8.69
259.031	-12.69
259.167	-8.69
259.303	17.31
259.439	-14.69
259.575	-13.69
259.711	1.31
259.847	-20.69
259.983	6.31
260.119	-5.69
260.255	-6.69
260.391	12.31
260.527	20.31
260.663	27.31
260.799	25.31
260.934	-1.69
261.07	-10.69
261.206	-11.69
261.342	-19.69
261.478	25.31
261.614	11.31
261.749	12.31
261.885	-3.69
262.021	-2.69
262.157	1.31
262.293	-5.69
262.428	-10.69
262.564	6.31
262.7	-11.69
262.836	-3.69
262.971	11.31
263.107	25.31
263.243	21.31
263.378	7.31
263.514	-3.69
263.65	-13.69
263.785	-11.69
263.921	0.31
264.057	-1.69
264.192	8.31
264.328	20.31
264.464	-3.69
264.599	15.31
264.735	11.31
264.871	-6.69
265.006	7.31
265.142	8.31
265.277	5.31
265.413	12.31
265.548	11.31
265.684	16.31
265.819	9.31
265.955	-15.69
266.091	-5.69
266.226	-7.69
266.362	-10.69
266.497	4.31
266.633	-8.69
266.768	-16.69
266.903	11.31
267.039	11.31
267.174	26.31
267.31	3.31
267.445	7.31
267.581	11.31
267.716	19.31
267.851	-4.69
267.987	12.31
268.122	8.31
268.258	1.31
268.393	-7.69
268.528	6.31
268.664	-7.69
268.799	-15.69
268.934	9.31
269.07	11.31
269.205	4.31
269.34	27.31
269.476	-0.69
269.611	-1.69
269.746	19.31
269.881	20.31
270.017	24.31
270.152	1.31
270.287	1.31
270.422	7.31
270.558	-17.69
270.693	5.31
270.828	-22.69
270.963	-5.69
271.098	-13.69
271.234	-5.69
271.369	10.31
271.504	8.31
271.639	-11.69
271.774	8.31
271.909	-0.69
272.045	-21.69
272.18	-8.69
272.315	7.31
272.45	31.31
272.585	-10.69
272.72	-10.69
272.855	-8.69
272.99	8.31
273.125	4.31
273.26	-10.69
273.395	-2.69
273.53	4.31
273.665	3.31
273.8	8.31
273.935	-1.69
274.07	16.31
274.205	6.31
274.34	23.31
274.475	-10.69
274.61	17.31
274.745	-11.69
274.88	4.31
275.015	-1.69
275.15	4.31
275.285	13.31
275.42	1.31
275.555	7.31
275.69	11.31
275.825	11.31
275.959	-6.69
276.094	4.31
276.229	-3.69
276.364	-8.69
276.499	15.31
276.634	-10.69
276.768	8.31
276.903	15.31
277.038	11.31
277.173	4.31
277.308	5.31
277.442	-8.69
277.577	0.31
277.712	5.31
277.847	8.31
277.981	11.31
278.116	-3.69
278.251	4.31
278.386	-1.69
278.52	21.31
278.655	-7.69
278.79	21.31
278.924	22.31
279.059	14.31
279.194	-19.69
279.328	30.31
279.463	-2.69
279.598	25.31
279.732	-7.69
279.867	-2.69
280.001	9.31
280.136	12.31
280.271	9.31
280.405	-4.69
280.54	-15.69
280.674	-3.69
280.809	29.31
280.943	4.31
281.078	20.31
281.213	17.31
281.347	11.31
281.482	9.31
281.616	4.31
281.751	-10.69
281.885	-12.69
282.02	2.31
282.154	30.31
282.288	-7.69
282.423	-12.69
282.557	-6.69
282.692	25.31
282.826	-0.69
282.961	11.31
283.095	6.31
283.229	-8.69
283.364	-14.69
283.498	-15.69
283.633	-1.69
283.767	-2.69
283.901	11.31
284.036	8.31
284.17	-4.69
284.304	-6.69
284.439	-0.69
284.573	-1.69
284.707	17.31
284.842	-5.69
284.976	-9.69
285.11	-8.69
285.244	28.31
285.379	58.31
285.513	-12.69
285.647	9.31
285.781	-5.69
285.916	20.31
286.05	-2.69
286.184	24.31
286.318	1.31
286.453	-18.69
286.587	-18.69
286.721	-3.69
286.855	4.31
286.989	9.31
287.123	-4.69
287.258	0.31
287.392	9.31
287.526	12.31
287.66	14.31
287.794	-2.69
287.928	-17.69
288.062	14.31
288.196	0.31
288.33	-1.69
288.464	33.31
288.598	14.31
288.733	4.31
288.867	25.31
289.001	15.31
289.135	16.31
289.269	-4.69
289.403	0.31
289.537	4.31
289.671	8.31
289.805	1.31
289.939	8.31
290.073	4.31
290.207	11.31
290.34	15.31
290.474	18.31
290.608	8.31
290.742	1.31
290.876	-3.69
291.01	6.31
291.144	44.31
291.278	22.31
291.412	6.31
291.546	5.31
291.679	1.31
291.813	-18.69
291.947	10.31
292.081	0.31
292.215	7.31
292.349	12.31
292.482	7.31
292.616	9.31
292.75	11.31
292.884	12.31
293.018	-3.69
293.151	-19.69
293.285	-4.69
293.419	5.31
293.553	-4.69
293.686	-14.69
293.82	7.31
293.954	14.31
294.088	24.31
294.221	-7.69
294.355	-16.69
294.489	-0.69
294.622	-16.69
294.756	-1.69
294.89	-6.69
295.023	6.31
295.157	5.31
295.291	16.31
295.424	24.31
295.558	-6.69
295.691	10.31
295.825	6.31
295.959	10.31
296.092	-14.69
296.226	0.31
296.359	6.31
296.493	5.31
296.627	9.31
296.76	4.31
296.894	-7.69
297.027	-12.69
297.161	-5.69
297.294	-12.69
297.428	6.31
297.561	12.31
297.695	9.31
297.828	6.31
297.962	-25.69
298.095	-17.69
298.229	6.31
298.362	-15.69
298.495	-19.69
298.629	-19.69
298.762	-6.69
298.896	-4.69
299.029	-12.69
299.162	0.31
299.296	8.31
299.429	-0.69
299.563	2.31
299.696	-7.69
299.829	-11.69
299.963	1.31
300.096	14.31
300.229	18.31
300.363	3.31
300.496	9.31
300.629	-15.69
300.763	-10.69
300.896	11.31
301.029	10.31
301.162	3.31
301.296	-10.69
301.429	4.31
301.562	-19.69
301.695	22.31
301.829	23.31
301.962	21.31
302.095	9.31
302.228	-7.69
302.362	14.31
302.495	-11.69
302.628	15.31
302.761	15.31
302.894	7.31
303.027	16.31
303.161	1.31
303.294	10.31
303.427	5.31
303.56	4.31
303.693	2.31
303.826	-8.69
303.959	-11.69
304.092	7.31
304.225	16.31
304.359	-5.69
304.492	4.31
304.625	-1.69
304.758	13.31
304.891	-4.69
305.024	21.31
305.157	-3.69
305.29	-0.69
305.423	-9.69
305.556	-1.69
305.689	1.31
305.822	-3.69
305.955	16.31
306.088	9.31
306.221	-2.69
306.354	-14.69
306.487	-18.69
306.62	-5.69
306.752	5.31
306.885	-15.69
307.018	25.31
307.151	-1.69
307.284	12.31
307.417	-2.69
307.55	9.31
307.683	9.31
307.816	4.31
307.948	-5.69
308.081	5.31
308.214	10.31
308.347	18.31
308.48	-10.69
308.613	-9.69
308.745	5.31
308.878	-6.69
309.011	-3.69
309.144	23.31
309.277	7.31
309.409	10.31
309.542	-19.69
309.675	3.31
309.808	-3.69
309.94	19.31
310.073	-2.69
310.206	-2.69
310.339	5.31
310.471	-24.69
310.604	16.31
310.737	3.31
310.869	9.31
311.002	3.31
311.135	-12.69
311.267	6.31
311.4	-2.69
311.533	22.31
311.665	-6.69
311.798	-4.69
311.93	23.31
312.063	49.31
312.196	49.31
312.328	81.31
312.461	46.31
312.593	28.31
312.726	52.31
312.859	98.31
312.991	167.31
313.124	43.31
313.256	32.31
313.389	16.31
313.521	5.31
313.654	-4.69
313.786	-14.69
313.919	-5.69
314.051	5.31
314.184	5.31
314.316	1.31
314.449	-15.69
314.581	14.31
314.714	0.31
314.846	11.31
314.978	-5.69
315.111	-13.69
315.243	10.31
315.376	3.31
315.508	-0.69
315.641	9.31
315.773	10.31
315.905	5.31
316.038	3.31
316.17	3.31
316.302	-2.69
316.435	-6.69
316.567	-10.69
316.699	21.31
316.832	-6.69
316.964	8.31
317.096	-9.69
317.229	-10.69
317.361	-24.69
317.493	-1.69
317.625	-2.69
317.758	5.31
317.89	14.31
318.022	6.31
318.155	-8.69
318.287	0.31
318.419	8.31
318.551	21.31
318.683	4.31
318.816	0.31
318.948	-0.69
319.08	-15.69
319.212	12.31
319.344	24.31
319.477	-1.69
319.609	14.31
319.741	4.31
319.873	-11.69
320.005	-15.69
320.137	-3.69
320.269	10.31
320.401	2.31
320.534	-6.69
320.666	-21.69
320.798	4.31
320.93	4.31
321.062	-20.69
321.194	-20.69
321.326	-12.69
321.458	16.31
321.59	4.31
321.722	-17.69
321.854	1.31
321.986	12.31
322.118	10.31
322.25	-3.69
322.382	5.31
322.514	-18.69
322.646	-13.69
322.778	38.31
322.91	16.31
323.042	1.31
323.174	8.31
323.306	-2.69
323.438	-19.69
323.57	-1.69
323.702	10.31
323.834	-2.69
323.966	-7.69
324.097	-6.69
324.229	23.31
324.361	19.31
324.493	12.31
324.625	-10.69
324.757	-2.69
324.889	17.31
325.021	21.31
325.152	15.31
325.284	6.31
325.416	-3.69
325.548	27.31
325.68	-2.69
325.811	15.31
325.943	25.31
326.075	-4.69
326.207	13.31
326.339	7.31
326.47	15.31
326.602	18.31
326.734	12.31
326.866	11.31
326.997	-17.69
327.129	-14.69
327.261	-25.69
327.392	3.31
327.524	19.31
327.656	1.31
327.787	13.31
327.919	9.31
328.051	4.31
328.182	14.31
328.314	10.31
328.446	-0.69
328.577	23.31
328.709	13.31
328.841	-11.69
328.972	-14.69
329.104	1.31
329.235	-4.69
329.367	-18.69
329.499	0.31
329.63	7.31
329.762	-2.69
329.893	20.31
330.025	-2.69
330.156	-6.69
330.288	3.31
330.419	15.31
330.551	-0.69
330.683	6.31
330.814	0.31
330.946	20.31
331.077	-11.69
331.208	5.31
331.34	-7.69
331.471	-9.69
331.603	19.31
331.734	-20.69
331.866	7.31
331.997	0.31
332.129	21.31
332.26	-1.69
332.392	22.31
332.523	7.31
332.654	1.31
332.786	-1.69
332.917	0.31
333.048	1.31
333.18	31.31
333.311	4.31
333.443	21.31
333.574	-1.69
333.705	42.31
333.837	53.31
333.968	129.31
334.099	209.31
334.231	202.31
334.362	55.31
334.493	22.31
334.624	11.31
334.756	8.31
334.887	12.31
335.018	21.31
335.15	14.31
335.281	16.31
335.412	22.31
335.543	26.31
335.675	9.31
335.806	16.31
335.937	14.31
336.068	5.31
336.199	36.31
336.331	11.31
336.462	-3.69
336.593	12.31
336.724	-1.69
336.855	10.31
336.986	20.31
337.118	16.31
337.249	9.31
337.38	19.31
337.511	22.31
337.642	5.31
337.773	9.31
337.904	31.31
338.035	22.31
338.166	13.31
338.298	23.31
338.429	16.31
338.56	16.31
338.691	19.31
338.822	17.31
338.953	18.31
339.084	31.31
339.215	21.31
339.346	16.31
339.477	13.31
339.608	19.31
339.739	17.31
339.87	12.31
340.001	5.31
340.132	15.31
340.263	-4.69
340.394	10.31
340.525	6.31
340.656	-5.69
340.787	-7.69
340.918	31.31
341.049	21.31
341.179	8.31
341.31	16.31
341.441	19.31
341.572	26.31
341.703	18.31
341.834	5.31
341.965	33.31
342.096	10.31
342.227	19.31
342.357	1.31
342.488	9.31
342.619	9.31
342.75	24.31
342.881	16.31
343.012	19.31
343.142	25.31
343.273	-11.69
343.404	2.31
343.535	51.31
343.666	26.31
343.796	29.31
343.927	30.31
344.058	30.31
344.189	27.31
344.319	23.31
344.45	39.31
344.581	7.31
344.712	16.31
344.842	30.31
344.973	36.31
345.104	23.31
345.234	19.31
345.365	23.31
345.496	28.31
345.626	23.31
345.757	35.31
345.888	5.31
346.018	23.31
346.149	23.31
346.28	46.31
346.41	20.31
346.541	23.31
346.672	18.31
346.802	24.31
346.933	20.31
347.063	15.31
347.194	34.31
347.325	40.31
347.455	45.31
347.586	33.31
347.716	11.31
347.847	42.31
347.977	51.31
348.108	49.31
348.238	40.31
348.369	41.31
348.499	44.31
348.63	39.31
348.76	36.31
348.891	56.31
349.021	54.31
349.152	51.31
349.282	66.31
349.413	45.31
349.543	39.31
349.674	24.31
349.804	28.31
349.935	33.31
350.065	27.31
350.196	21.31
350.326	26.31
350.456	13.31
350.587	29.31
350.717	28.31
350.848	39.31
350.978	36.31
351.108	16.31
351.239	45.31
351.369	14.31
351.499	14.31
351.63	23.31
351.76	8.31
351.89	28.31
352.021	20.31
352.151	9.31
352.281	27.31
352.412	25.31
352.542	12.31
352.672	7.31
352.803	5.31
352.933	10.31
353.063	29.31
353.193	34.31
353.324	27.31
353.454	27.31
353.584	33.31
353.714	14.31
353.845	13.31
353.975	23.31
354.105	21.31
354.235	29.31
354.365	8.31
354.496	7.31
354.626	12.31
354.756	44.31
354.886	34.31
355.016	29.31
355.146	23.31
355.277	35.31
355.407	24.31
355.537	32.31
355.667	19.31
355.797	27.31
355.927	14.31
356.057	22.31
356.187	21.31
356.318	23.31
356.448	28.31
356.578	38.31
356.708	22.31
356.838	37.31
356.968	18.31
357.098	8.31
357.228	38.31
357.358	38.31
357.488	20.31
357.618	58.31
357.748	44.31
357.878	33.31
358.008	10.31
358.138	17.31
358.268	25.31
358.398	33.31
358.528	22.31
358.658	37.31
358.788	9.31
358.918	53.31
359.048	39.31
359.178	50.31
359.308	38.31
359.438	38.31
359.568	36.31
359.698	20.31
359.827	26.31
359.957	40.31
360.087	23.31
360.217	19.31
360.347	26.31
360.477	38.31
360.607	4.31
360.737	33.31
360.866	24.31
360.996	20.31
361.126	17.31
361.256	62.31
361.386	46.31
361.516	50.31
361.645	9.31
361.775	41.31
361.905	17.31
362.035	30.31
362.165	33.31
362.294	52.31
362.424	51.31
362.554	26.31
362.684	27.31
362.813	53.31
362.943	54.31
363.073	67.31
363.203	58.31
363.332	62.31
363.462	81.31
363.592	103.31
363.721	120.31
363.851	132.31
363.981	207.31
364.111	243.31
364.24	298.31
364.37	487.31
364.5	855.31
364.629	1817.31
364.759	3767.31
364.888	6232.31
365.018	9317.31
365.148	14767.31
365.277	12827.31
365.407	4664.31
365.537	3059.31
365.666	3950.31
365.796	1820.31
365.925	778.31
366.055	733.31
366.184	998.31
366.314	1383.31
366.444	2437.31
366.573	2089.31
366.703	629.31
366.832	212.31
366.962	126.31
367.091	83.31
367.221	81.31
367.35	61.31
367.48	80.31
367.609	53.31
367.739	58.31
367.868	43.31
367.998	38.31
368.127	51.31
368.257	57.31
368.386	56.31
368.516	38.31
368.645	37.31
368.775	44.31
368.904	33.31
369.033	48.31
369.163	32.31
369.292	47.31
369.422	40.31
369.551	32.31
369.68	36.31
369.81	36.31
369.939	15.31
370.069	48.31
370.198	24.31
370.327	17.31
370.457	29.31
370.586	48.31
370.715	44.31
370.845	39.31
370.974	41.31
371.103	45.31
371.233	42.31
371.362	40.31
371.491	35.31
371.621	48.31
371.75	45.31
371.879	34.31
372.008	47.31
372.138	39.31
372.267	59.31
372.396	58.31
372.525	54.31
372.655	36.31
372.784	42.31
372.913	18.31
373.042	33.31
373.172	41.31
373.301	10.31
373.43	1.31
373.559	15.31
373.688	24.31
373.818	37.31
373.947	20.31
374.076	15.31
374.205	22.31
374.334	16.31
374.463	12.31
374.593	26.31
374.722	22.31
374.851	30.31
374.98	28.31
375.109	21.31
375.238	25.31
375.367	27.31
375.496	-9.69
375.625	11.31
375.755	36.31
375.884	40.31
376.013	43.31
376.142	14.31
376.271	24.31
376.4	10.31
376.529	17.31
376.658	27.31
376.787	24.31
376.916	15.31
377.045	17.31
377.174	21.31
377.303	-0.69
377.432	36.31
377.561	28.31
377.69	18.31
377.819	22.31
377.948	31.31
378.077	19.31
378.206	10.31
378.335	9.31
378.464	11.31
378.593	53.31
378.722	18.31
378.851	1.31
378.98	26.31
379.108	-0.69
379.237	-0.69
379.366	18.31
379.495	38.31
379.624	17.31
379.753	26.31
379.882	5.31
380.011	6.31
380.14	-2.69
380.268	13.31
380.397	-2.69
380.526	36.31
380.655	20.31
380.784	-15.69
380.913	4.31
381.041	21.31
381.17	10.31
381.299	4.31
381.428	1.31
381.557	21.31
381.685	23.31
381.814	29.31
381.943	-1.69
382.072	3.31
382.2	6.31
382.329	7.31
382.458	-2.69
382.587	40.31
382.715	35.31
382.844	27.31
382.973	19.31
383.102	28.31
383.23	16.31
383.359	10.31
383.488	41.31
383.616	0.31
383.745	-4.69
383.874	14.31
384.003	15.31
384.131	5.31
384.26	-3.69
384.389	30.31
384.517	9.31
384.646	0.31
384.774	9.31
384.903	14.31
385.032	25.31
385.16	9.31
385.289	7.31
385.418	34.31
385.546	7.31
385.675	27.31
385.803	22.31
385.932	17.31
386.06	4.31
386.189	16.31
386.318	19.31
386.446	10.31
386.575	29.31
386.703	46.31
386.832	3.31
386.96	-8.69
387.089	43.31
387.217	19.31
387.346	17.31
387.474	28.31
387.603	12.31
387.731	6.31
387.86	20.31
387.988	5.31
388.117	14.31
388.245	15.31
388.374	16.31
388.502	25.31
388.631	1.31
388.759	4.31
388.888	27.31
389.016	4.31
389.144	-9.69
389.273	19.31
389.401	18.31
389.53	19.31
389.658	42.31
389.786	9.31
389.915	10.31
390.043	22.31
390.172	22.31
390.3	46.31
390.428	46.31
390.557	20.31
390.685	35.31
390.813	38.31
390.942	33.31
391.07	28.31
391.198	26.31
391.327	6.31
391.455	6.31
391.583	20.31
391.712	46.31
391.84	34.31
391.968	3.31
392.096	10.31
392.225	9.31
392.353	18.31
392.481	29.31
392.609	31.31
392.738	24.31
392.866	30.31
392.994	10.31
393.122	40.31
393.251	19.31
393.379	11.31
393.507	4.31
393.635	14.31
393.764	40.31
393.892	31.31
394.02	29.31
394.148	32.31
394.276	19.31
394.404	46.31
394.533	38.31
394.661	24.31
394.789	48.31
394.917	49.31
395.045	21.31
395.173	18.31
395.302	35.31
395.43	35.31
395.558	31.31
395.686	25.31
395.814	37.31
395.942	18.31
396.07	40.31
396.198	32.31
396.326	30.31
396.454	51.31
396.582	27.31
396.711	23.31
396.839	36.31
396.967	48.31
397.095	24.31
397.223	49.31
397.351	51.31
397.479	53.31
397.607	41.31
397.735	33.31
397.863	37.31
397.991	43.31
398.119	32.31
398.247	46.31
398.375	33.31
398.503	34.31
398.631	57.31
398.759	65.31
398.887	43.31
399.015	52.31
399.143	36.31
399.271	65.31
399.399	70.31
399.526	76.31
399.654	74.31
399.782	57.31
399.91	79.31
400.038	93.31
400.166	77.31
400.294	80.31
400.422	67.31
400.55	105.31
400.678	108.31
400.805	93.31
400.933	116.31
401.061	127.31
401.189	122.31
401.317	137.31
401.445	118.31
401.573	89.31
401.7	69.31
401.828	53.31
401.956	60.31
402.084	43.31
402.212	39.31
402.34	20.31
402.467	33.31
402.595	47.31
402.723	40.31
402.851	68.31
402.978	45.31
403.106	78.31
403.234	76.31
403.362	130.31
403.489	124.31
403.617	140.31
403.745	193.31
403.873	276.31
404	557.31
404.128	1437.31
404.256	3881.31
404.384	5025.31
404.511	5403.31
404.639	7111.31
404.767	11340.31
404.894	14526.31
405.022	4875.31
405.15	1264.31
405.277	414.31
405.405	230.31
405.533	134.31
405.66	125.31
405.788	78.31
405.916	71.31
406.043	35.31
406.171	48.31
406.299	56.31
406.426	48.31
406.554	48.31
406.681	54.31
406.809	45.31
406.937	65.31
407.064	56.31
407.192	128.31
407.319	331.31
407.447	521.31
407.574	538.31
407.702	627.31
407.83	843.31
407.957	1593.31
408.085	945.31
408.212	284.31
408.34	92.31
408.467	55.31
408.595	43.31
408.722	69.31
408.85	35.31
408.977	48.31
409.105	39.31
409.232	34.31
409.36	48.31
409.487	23.31
409.615	50.31
409.742	45.31
409.87	35.31
409.997	44.31
410.125	27.31
410.252	22.31
410.379	13.31
410.507	47.31
410.634	36.31
410.762	16.31
410.889	60.31
411.017	29.31
411.144	37.31
411.271	11.31
411.399	30.31
411.526	23.31
411.653	28.31
411.781	43.31
411.908	35.31
412.036	13.31
412.163	40.31
412.29	28.31
412.418	34.31
412.545	38.31
412.672	11.31
412.8	47.31
412.927	34.31
413.054	51.31
413.182	28.31
413.309	27.31
413.436	1.31
413.564	24.31
413.691	27.31
413.818	32.31
413.945	7.31
414.073	21.31
414.2	52.31
414.327	25.31
414.454	31.31
414.582	44.31
414.709	20.31
414.836	12.31
414.963	9.31
415.091	27.31
415.218	23.31
415.345	24.31
415.472	29.31
415.6	7.31
415.727	51.31
415.854	18.31
415.981	28.31
416.108	20.31
416.236	17.31
416.363	33.31
416.49	29.31
416.617	23.31
416.744	37.31
416.871	45.31
416.998	20.31
417.126	26.31
417.253	23.31
417.38	28.31
417.507	26.31
417.634	19.31
417.761	34.31
417.888	37.31
418.015	37.31
418.143	42.31
418.27	58.31
418.397	33.31
418.524	24.31
418.651	41.31
418.778	46.31
418.905	76.31
