Data from LowRes_mercury_15_20_11_07_2024_HR4C61881__46__15-23-36-871.txt Node

Date: Thu Nov 07 15:23:36 EST 2024
User: crc00042
Spectrometer: HR4C6188
Trigger mode: 4
Integration Time (sec): 1.000000E-1
Scans to average: 1
Electric dark correction enabled: true
Nonlinearity correction enabled: false
Boxcar width: 0
XAxis mode: Wavelengths
Number of Pixels in Spectrum: 3648
>>>>>Begin Spectral Data<<<<<
245.66	-49.46
245.797	-49.46
245.934	-49.46
246.071	-74.46
246.208	17.54
246.344	14.54
246.481	-21.46
246.618	-18.46
246.755	-5.46
246.892	8.54
247.029	-24.46
247.165	-3.46
247.302	12.54
247.439	16.54
247.576	12.54
247.713	-1.46
247.849	24.54
247.986	-14.46
248.123	-10.46
248.26	-3.46
248.396	10.54
248.533	12.54
248.67	-4.46
248.806	-7.46
248.943	-5.46
249.08	-3.46
249.216	6.54
249.353	-19.46
249.49	2.54
249.626	5.54
249.763	-6.46
249.9	-19.46
250.036	-20.46
250.173	-14.46
250.309	0.54
250.446	-8.46
250.582	-7.46
250.719	-21.46
250.856	9.54
250.992	-16.46
251.129	-13.46
251.265	-7.46
251.402	6.54
251.538	-1.46
251.675	-12.46
251.811	12.54
251.948	17.54
252.084	-3.46
252.221	-18.46
252.357	-2.46
252.493	18.54
252.63	0.54
252.766	13.54
252.903	-8.46
253.039	-9.46
253.175	3.54
253.312	16.54
253.448	-4.46
253.585	-9.46
253.721	4.54
253.857	-7.46
253.994	5.54
254.13	-2.46
254.266	-6.46
254.403	-13.46
254.539	-12.46
254.675	13.54
254.811	3.54
254.948	17.54
255.084	-8.46
255.22	-18.46
255.356	-4.46
255.493	13.54
255.629	11.54
255.765	-7.46
255.901	27.54
256.037	6.54
256.174	-5.46
256.31	-14.46
256.446	-1.46
256.582	-6.46
256.718	4.54
256.854	11.54
256.991	10.54
257.127	25.54
257.263	15.54
257.399	10.54
257.535	-24.46
257.671	-7.46
257.807	-13.46
257.943	-15.46
258.079	-25.46
258.215	-18.46
258.351	6.54
258.487	2.54
258.623	35.54
258.759	-5.46
258.895	7.54
259.031	-6.46
259.167	-16.46
259.303	17.54
259.439	-5.46
259.575	2.54
259.711	2.54
259.847	10.54
259.983	7.54
260.119	5.54
260.255	-22.46
260.391	-1.46
260.527	11.54
260.663	-1.46
260.799	4.54
260.934	1.54
261.07	-5.46
261.206	-3.46
261.342	-2.46
261.478	2.54
261.614	5.54
261.749	17.54
261.885	-0.46
262.021	3.54
262.157	12.54
262.293	-13.46
262.428	10.54
262.564	1.54
262.7	-12.46
262.836	-12.46
262.971	11.54
263.107	-3.46
263.243	11.54
263.378	0.54
263.514	-28.46
263.65	-1.46
263.785	-5.46
263.921	-5.46
264.057	14.54
264.192	12.54
264.328	28.54
264.464	-20.46
264.599	4.54
264.735	10.54
264.871	-15.46
265.006	-1.46
265.142	-0.46
265.277	-11.46
265.413	9.54
265.548	14.54
265.684	12.54
265.819	6.54
265.955	-25.46
266.091	-4.46
266.226	-13.46
266.362	-4.46
266.497	6.54
266.633	-1.46
266.768	-9.46
266.903	12.54
267.039	13.54
267.174	27.54
267.31	-1.46
267.445	8.54
267.581	-7.46
267.716	-8.46
267.851	-5.46
267.987	-2.46
268.122	10.54
268.258	-1.46
268.393	0.54
268.528	14.54
268.664	-4.46
268.799	-18.46
268.934	2.54
269.07	-15.46
269.205	10.54
269.34	23.54
269.476	3.54
269.611	-13.46
269.746	18.54
269.881	20.54
270.017	20.54
270.152	0.54
270.287	-3.46
270.422	9.54
270.558	1.54
270.693	21.54
270.828	0.54
270.963	2.54
271.098	-16.46
271.234	-6.46
271.369	27.54
271.504	0.54
271.639	0.54
271.774	13.54
271.909	-2.46
272.045	-31.46
272.18	7.54
272.315	-1.46
272.45	-1.46
272.585	0.54
272.72	9.54
272.855	9.54
272.99	16.54
273.125	2.54
273.26	-3.46
273.395	-10.46
273.53	0.54
273.665	-12.46
273.8	-22.46
273.935	-11.46
274.07	11.54
274.205	7.54
274.34	-12.46
274.475	-15.46
274.61	20.54
274.745	-10.46
274.88	21.54
275.015	-10.46
275.15	2.54
275.285	13.54
275.42	0.54
275.555	7.54
275.69	-3.46
275.825	-3.46
275.959	13.54
276.094	-0.46
276.229	-2.46
276.364	-8.46
276.499	-1.46
276.634	-5.46
276.768	-8.46
276.903	6.54
277.038	31.54
277.173	7.54
277.308	-6.46
277.442	-9.46
277.577	-12.46
277.712	-11.46
277.847	8.54
277.981	5.54
278.116	-14.46
278.251	1.54
278.386	3.54
278.52	1.54
278.655	-2.46
278.79	10.54
278.924	-2.46
279.059	3.54
279.194	-9.46
279.328	35.54
279.463	4.54
279.598	14.54
279.732	-1.46
279.867	1.54
280.001	-0.46
280.136	-10.46
280.271	24.54
280.405	12.54
280.54	18.54
280.674	-10.46
280.809	19.54
280.943	8.54
281.078	-7.46
281.213	27.54
281.347	14.54
281.482	12.54
281.616	4.54
281.751	-8.46
281.885	-32.46
282.02	-11.46
282.154	-1.46
282.288	-0.46
282.423	-3.46
282.557	-10.46
282.692	8.54
282.826	-1.46
282.961	7.54
283.095	3.54
283.229	-17.46
283.364	-6.46
283.498	-8.46
283.633	18.54
283.767	-10.46
283.901	1.54
284.036	5.54
284.17	-0.46
284.304	-5.46
284.439	-1.46
284.573	-2.46
284.707	5.54
284.842	-8.46
284.976	-6.46
285.11	1.54
285.244	11.54
285.379	38.54
285.513	0.54
285.647	10.54
285.781	-13.46
285.916	-5.46
286.05	3.54
286.184	29.54
286.318	-7.46
286.453	-17.46
286.587	-8.46
286.721	-1.46
286.855	-0.46
286.989	8.54
287.123	-4.46
287.258	-11.46
287.392	-12.46
287.526	-9.46
287.66	3.54
287.794	-5.46
287.928	-3.46
288.062	1.54
288.196	-4.46
288.33	19.54
288.464	33.54
288.598	21.54
288.733	13.54
288.867	-5.46
289.001	4.54
289.135	3.54
289.269	4.54
289.403	5.54
289.537	11.54
289.671	14.54
289.805	-0.46
289.939	15.54
290.073	14.54
290.207	16.54
290.34	7.54
290.474	5.54
290.608	31.54
290.742	6.54
290.876	-5.46
291.01	9.54
291.144	16.54
291.278	32.54
291.412	11.54
291.546	8.54
291.679	5.54
291.813	6.54
291.947	-18.46
292.081	-3.46
292.215	-17.46
292.349	21.54
292.482	18.54
292.616	1.54
292.75	-5.46
292.884	-7.46
293.018	6.54
293.151	-22.46
293.285	3.54
293.419	-9.46
293.553	-10.46
293.686	-17.46
293.82	8.54
293.954	5.54
294.088	36.54
294.221	-3.46
294.355	6.54
294.489	14.54
294.622	7.54
294.756	-3.46
294.89	-9.46
295.023	7.54
295.157	19.54
295.291	4.54
295.424	15.54
295.558	19.54
295.691	4.54
295.825	-9.46
295.959	9.54
296.092	-8.46
296.226	-3.46
296.359	-4.46
296.493	-3.46
296.627	4.54
296.76	-2.46
296.894	2.54
297.027	-9.46
297.161	2.54
297.294	-12.46
297.428	6.54
297.561	24.54
297.695	-1.46
297.828	4.54
297.962	-9.46
298.095	-12.46
298.229	7.54
298.362	-1.46
298.495	3.54
298.629	4.54
298.762	12.54
298.896	15.54
299.029	-21.46
299.162	4.54
299.296	19.54
299.429	-0.46
299.563	18.54
299.696	0.54
299.829	3.54
299.963	12.54
300.096	6.54
300.229	19.54
300.363	8.54
300.496	10.54
300.629	-7.46
300.763	13.54
300.896	-2.46
301.029	17.54
301.162	20.54
301.296	-4.46
301.429	3.54
301.562	-5.46
301.695	15.54
301.829	1.54
301.962	18.54
302.095	16.54
302.228	0.54
302.362	5.54
302.495	-0.46
302.628	14.54
302.761	6.54
302.894	10.54
303.027	12.54
303.161	1.54
303.294	1.54
303.427	11.54
303.56	-3.46
303.693	13.54
303.826	14.54
303.959	-25.46
304.092	-6.46
304.225	-6.46
304.359	14.54
304.492	3.54
304.625	7.54
304.758	23.54
304.891	-20.46
305.024	14.54
305.157	-5.46
305.29	-17.46
305.423	0.54
305.556	6.54
305.689	19.54
305.822	6.54
305.955	-3.46
306.088	0.54
306.221	-0.46
306.354	-9.46
306.487	-9.46
306.62	-18.46
306.752	-20.46
306.885	-11.46
307.018	-5.46
307.151	6.54
307.284	-9.46
307.417	-8.46
307.55	-2.46
307.683	-7.46
307.816	6.54
307.948	15.54
308.081	10.54
308.214	8.54
308.347	7.54
308.48	-0.46
308.613	-9.46
308.745	11.54
308.878	-12.46
309.011	11.54
309.144	18.54
309.277	6.54
309.409	10.54
309.542	1.54
309.675	23.54
309.808	19.54
309.94	26.54
310.073	-19.46
310.206	-14.46
310.339	15.54
310.471	-10.46
310.604	31.54
310.737	2.54
310.869	6.54
311.002	7.54
311.135	2.54
311.267	-2.46
311.4	1.54
311.533	23.54
311.665	-2.46
311.798	18.54
311.93	19.54
312.063	29.54
312.196	30.54
312.328	59.54
312.461	36.54
312.593	19.54
312.726	69.54
312.859	111.54
312.991	156.54
313.124	58.54
313.256	28.54
313.389	6.54
313.521	4.54
313.654	5.54
313.786	-2.46
313.919	-2.46
314.051	6.54
314.184	16.54
314.316	23.54
314.449	3.54
314.581	16.54
314.714	-0.46
314.846	20.54
314.978	-22.46
315.111	-10.46
315.243	4.54
315.376	-5.46
315.508	8.54
315.641	2.54
315.773	15.54
315.905	8.54
316.038	-3.46
316.17	4.54
316.302	6.54
316.435	-0.46
316.567	-13.46
316.699	28.54
316.832	-4.46
316.964	-3.46
317.096	-8.46
317.229	0.54
317.361	-20.46
317.493	12.54
317.625	-11.46
317.758	-17.46
317.89	4.54
318.022	13.54
318.155	-0.46
318.287	0.54
318.419	-2.46
318.551	-3.46
318.683	10.54
318.816	17.54
318.948	-1.46
319.08	-9.46
319.212	9.54
319.344	-8.46
319.477	-5.46
319.609	6.54
319.741	-1.46
319.873	-23.46
320.005	14.54
320.137	10.54
320.269	7.54
320.401	8.54
320.534	-1.46
320.666	-7.46
320.798	-12.46
320.93	7.54
321.062	-22.46
321.194	3.54
321.326	-5.46
321.458	-2.46
321.59	-14.46
321.722	-5.46
321.854	-15.46
321.986	5.54
322.118	21.54
322.25	1.54
322.382	1.54
322.514	-1.46
322.646	-8.46
322.778	8.54
322.91	-12.46
323.042	0.54
323.174	-11.46
323.306	-17.46
323.438	-13.46
323.57	8.54
323.702	-5.46
323.834	4.54
323.966	-2.46
324.097	4.54
324.229	6.54
324.361	14.54
324.493	-1.46
324.625	-0.46
324.757	3.54
324.889	-1.46
325.021	6.54
325.152	21.54
325.284	20.54
325.416	-12.46
325.548	2.54
325.68	14.54
325.811	24.54
325.943	10.54
326.075	-26.46
326.207	-7.46
326.339	-3.46
326.47	1.54
326.602	8.54
326.734	14.54
326.866	18.54
326.997	-5.46
327.129	-1.46
327.261	-22.46
327.392	-11.46
327.524	-3.46
327.656	12.54
327.787	18.54
327.919	0.54
328.051	14.54
328.182	25.54
328.314	34.54
328.446	10.54
328.577	30.54
328.709	18.54
328.841	-1.46
328.972	-6.46
329.104	-4.46
329.235	19.54
329.367	8.54
329.499	11.54
329.63	26.54
329.762	1.54
329.893	21.54
330.025	-3.46
330.156	5.54
330.288	-8.46
330.419	8.54
330.551	21.54
330.683	13.54
330.814	6.54
330.946	23.54
331.077	10.54
331.208	-12.46
331.34	7.54
331.471	1.54
331.603	6.54
331.734	-5.46
331.866	5.54
331.997	2.54
332.129	14.54
332.26	13.54
332.392	26.54
332.523	4.54
332.654	-15.46
332.786	-3.46
332.917	5.54
333.048	33.54
333.18	21.54
333.311	12.54
333.443	8.54
333.574	14.54
333.705	30.54
333.837	54.54
333.968	115.54
334.099	219.54
334.231	209.54
334.362	59.54
334.493	32.54
334.624	20.54
334.756	12.54
334.887	18.54
335.018	6.54
335.15	19.54
335.281	4.54
335.412	29.54
335.543	11.54
335.675	6.54
335.806	18.54
335.937	11.54
336.068	16.54
336.199	45.54
336.331	-8.46
336.462	19.54
336.593	23.54
336.724	0.54
336.855	6.54
336.986	7.54
337.118	15.54
337.249	9.54
337.38	24.54
337.511	10.54
337.642	11.54
337.773	0.54
337.904	14.54
338.035	19.54
338.166	-2.46
338.298	-5.46
338.429	12.54
338.56	7.54
338.691	19.54
338.822	16.54
338.953	20.54
339.084	18.54
339.215	25.54
339.346	-12.46
339.477	-12.46
339.608	6.54
339.739	5.54
339.87	-2.46
340.001	7.54
340.132	15.54
340.263	8.54
340.394	20.54
340.525	20.54
340.656	-5.46
340.787	5.54
340.918	15.54
341.049	25.54
341.179	16.54
341.31	30.54
341.441	6.54
341.572	22.54
341.703	-1.46
341.834	0.54
341.965	39.54
342.096	16.54
342.227	11.54
342.357	-3.46
342.488	9.54
342.619	7.54
342.75	-2.46
342.881	-8.46
343.012	26.54
343.142	30.54
343.273	-0.46
343.404	12.54
343.535	26.54
343.666	37.54
343.796	23.54
343.927	29.54
344.058	31.54
344.189	21.54
344.319	24.54
344.45	17.54
344.581	16.54
344.712	11.54
344.842	25.54
344.973	31.54
345.104	25.54
345.234	5.54
345.365	13.54
345.496	26.54
345.626	25.54
345.757	26.54
345.888	19.54
346.018	20.54
346.149	30.54
346.28	34.54
346.41	29.54
346.541	26.54
346.672	20.54
346.802	36.54
346.933	22.54
347.063	22.54
347.194	26.54
347.325	31.54
347.455	32.54
347.586	26.54
347.716	14.54
347.847	32.54
347.977	28.54
348.108	38.54
348.238	32.54
348.369	33.54
348.499	56.54
348.63	44.54
348.76	46.54
348.891	63.54
349.021	57.54
349.152	74.54
349.282	52.54
349.413	47.54
349.543	51.54
349.674	13.54
349.804	43.54
349.935	28.54
350.065	34.54
350.196	27.54
350.326	22.54
350.456	10.54
350.587	28.54
350.717	18.54
350.848	21.54
350.978	37.54
351.108	-0.46
351.239	37.54
351.369	26.54
351.499	18.54
351.63	16.54
351.76	20.54
351.89	15.54
352.021	18.54
352.151	4.54
352.281	29.54
352.412	14.54
352.542	18.54
352.672	4.54
352.803	19.54
352.933	11.54
353.063	27.54
353.193	10.54
353.324	14.54
353.454	34.54
353.584	31.54
353.714	6.54
353.845	12.54
353.975	14.54
354.105	16.54
354.235	18.54
354.365	24.54
354.496	19.54
354.626	36.54
354.756	21.54
354.886	35.54
355.016	21.54
355.146	14.54
355.277	32.54
355.407	18.54
355.537	22.54
355.667	39.54
355.797	25.54
355.927	23.54
356.057	32.54
356.187	14.54
356.318	15.54
356.448	38.54
356.578	32.54
356.708	48.54
356.838	25.54
356.968	12.54
357.098	26.54
357.228	22.54
357.358	31.54
357.488	22.54
357.618	45.54
357.748	33.54
357.878	47.54
358.008	17.54
358.138	32.54
358.268	26.54
358.398	21.54
358.528	22.54
358.658	16.54
358.788	23.54
358.918	22.54
359.048	30.54
359.178	37.54
359.308	36.54
359.438	39.54
359.568	22.54
359.698	18.54
359.827	37.54
359.957	27.54
360.087	30.54
360.217	28.54
360.347	22.54
360.477	18.54
360.607	9.54
360.737	47.54
360.866	25.54
360.996	9.54
361.126	19.54
361.256	52.54
361.386	40.54
361.516	43.54
361.645	11.54
361.775	60.54
361.905	14.54
362.035	29.54
362.165	23.54
362.294	43.54
362.424	39.54
362.554	32.54
362.684	27.54
362.813	24.54
362.943	55.54
363.073	47.54
363.203	67.54
363.332	80.54
363.462	66.54
363.592	93.54
363.721	113.54
363.851	167.54
363.981	216.54
364.111	245.54
364.24	313.54
364.37	502.54
364.5	856.54
364.629	1775.54
364.759	3816.54
364.888	6142.54
365.018	9260.54
365.148	14755.54
365.277	12888.54
365.407	4695.54
365.537	3100.54
365.666	3971.54
365.796	1811.54
365.925	767.54
366.055	745.54
366.184	1004.54
366.314	1337.54
366.444	2463.54
366.573	2086.54
366.703	655.54
366.832	202.54
366.962	106.54
367.091	83.54
367.221	81.54
367.35	68.54
367.48	75.54
367.609	39.54
367.739	54.54
367.868	45.54
367.998	40.54
368.127	59.54
368.257	62.54
368.386	64.54
368.516	40.54
368.645	36.54
368.775	52.54
368.904	37.54
369.033	21.54
369.163	28.54
369.292	50.54
369.422	45.54
369.551	54.54
369.68	47.54
369.81	31.54
369.939	36.54
370.069	53.54
370.198	41.54
370.327	32.54
370.457	51.54
370.586	42.54
370.715	27.54
370.845	29.54
370.974	52.54
371.103	52.54
371.233	48.54
371.362	51.54
371.491	20.54
371.621	44.54
371.75	42.54
371.879	42.54
372.008	36.54
372.138	55.54
372.267	70.54
372.396	50.54
372.525	24.54
372.655	18.54
372.784	16.54
372.913	39.54
373.042	38.54
373.172	35.54
373.301	19.54
373.43	-1.46
373.559	9.54
373.688	28.54
373.818	37.54
373.947	37.54
374.076	4.54
374.205	20.54
374.334	11.54
374.463	8.54
374.593	32.54
374.722	45.54
374.851	34.54
374.98	7.54
375.109	12.54
375.238	28.54
375.367	46.54
375.496	-12.46
375.625	9.54
375.755	36.54
375.884	29.54
376.013	30.54
376.142	-7.46
376.271	9.54
376.4	24.54
376.529	27.54
376.658	37.54
376.787	28.54
376.916	30.54
377.045	20.54
377.174	28.54
377.303	37.54
377.432	42.54
377.561	43.54
377.69	23.54
377.819	33.54
377.948	11.54
378.077	8.54
378.206	5.54
378.335	8.54
378.464	20.54
378.593	24.54
378.722	18.54
378.851	8.54
378.98	24.54
379.108	8.54
379.237	-0.46
379.366	29.54
379.495	39.54
379.624	7.54
379.753	7.54
379.882	21.54
380.011	5.54
380.14	-1.46
380.268	12.54
380.397	8.54
380.526	35.54
380.655	-2.46
380.784	-20.46
380.913	14.54
381.041	22.54
381.17	9.54
381.299	15.54
381.428	23.54
381.557	21.54
381.685	3.54
381.814	13.54
381.943	10.54
382.072	1.54
382.2	3.54
382.329	20.54
382.458	25.54
382.587	33.54
382.715	47.54
382.844	18.54
382.973	18.54
383.102	11.54
383.23	16.54
383.359	-2.46
383.488	28.54
383.616	27.54
383.745	3.54
383.874	11.54
384.003	11.54
384.131	9.54
384.26	12.54
384.389	31.54
384.517	6.54
384.646	16.54
384.774	24.54
384.903	26.54
385.032	37.54
385.16	29.54
385.289	20.54
385.418	5.54
385.546	40.54
385.675	23.54
385.803	11.54
385.932	17.54
386.06	10.54
386.189	23.54
386.318	35.54
386.446	11.54
386.575	26.54
386.703	11.54
386.832	11.54
386.96	1.54
387.089	42.54
387.217	5.54
387.346	24.54
387.474	23.54
387.603	26.54
387.731	9.54
387.86	25.54
387.988	36.54
388.117	43.54
388.245	18.54
388.374	21.54
388.502	10.54
388.631	-17.46
388.759	10.54
388.888	19.54
389.016	-1.46
389.144	16.54
389.273	16.54
389.401	6.54
389.53	13.54
389.658	16.54
389.786	-2.46
389.915	16.54
390.043	8.54
390.172	16.54
390.3	36.54
390.428	20.54
390.557	17.54
390.685	37.54
390.813	47.54
390.942	54.54
391.07	28.54
391.198	33.54
391.327	39.54
391.455	12.54
391.583	37.54
391.712	14.54
391.84	36.54
391.968	22.54
392.096	13.54
392.225	14.54
392.353	38.54
392.481	19.54
392.609	27.54
392.738	24.54
392.866	16.54
392.994	14.54
393.122	42.54
393.251	12.54
393.379	15.54
393.507	10.54
393.635	23.54
393.764	18.54
393.892	27.54
394.02	13.54
394.148	34.54
394.276	31.54
394.404	49.54
394.533	34.54
394.661	19.54
394.789	24.54
394.917	59.54
395.045	31.54
395.173	11.54
395.302	15.54
395.43	20.54
395.558	32.54
395.686	22.54
395.814	29.54
395.942	28.54
396.07	35.54
396.198	32.54
396.326	44.54
396.454	39.54
396.582	23.54
396.711	24.54
396.839	45.54
396.967	36.54
397.095	22.54
397.223	36.54
397.351	66.54
397.479	62.54
397.607	29.54
397.735	43.54
397.863	55.54
397.991	46.54
398.119	24.54
398.247	45.54
398.375	34.54
398.503	59.54
398.631	61.54
398.759	52.54
398.887	53.54
399.015	36.54
399.143	48.54
399.271	60.54
399.399	62.54
399.526	83.54
399.654	56.54
399.782	56.54
399.91	93.54
400.038	80.54
400.166	80.54
400.294	72.54
400.422	64.54
400.55	86.54
400.678	100.54
400.805	112.54
400.933	104.54
401.061	121.54
401.189	132.54
401.317	143.54
401.445	108.54
401.573	90.54
401.7	45.54
401.828	56.54
401.956	51.54
402.084	36.54
402.212	34.54
402.34	33.54
402.467	30.54
402.595	36.54
402.723	45.54
402.851	49.54
402.978	55.54
403.106	76.54
403.234	101.54
403.362	123.54
403.489	124.54
403.617	137.54
403.745	188.54
403.873	282.54
404	555.54
404.128	1434.54
404.256	3850.54
404.384	4991.54
404.511	5357.54
404.639	7098.54
404.767	11234.54
404.894	14527.54
405.022	4856.54
405.15	1268.54
405.277	424.54
405.405	228.54
405.533	114.54
405.66	103.54
405.788	55.54
405.916	69.54
406.043	46.54
406.171	41.54
406.299	57.54
406.426	66.54
406.554	40.54
406.681	75.54
406.809	54.54
406.937	68.54
407.064	69.54
407.192	143.54
407.319	314.54
407.447	508.54
407.574	543.54
407.702	642.54
407.83	840.54
407.957	1570.54
408.085	922.54
408.212	263.54
408.34	92.54
408.467	51.54
408.595	33.54
408.722	56.54
408.85	53.54
408.977	32.54
409.105	18.54
409.232	32.54
409.36	25.54
409.487	19.54
409.615	29.54
409.742	32.54
409.87	27.54
409.997	46.54
410.125	32.54
410.252	38.54
410.379	23.54
410.507	32.54
410.634	32.54
410.762	25.54
410.889	49.54
411.017	43.54
411.144	28.54
411.271	5.54
411.399	29.54
411.526	15.54
411.653	33.54
411.781	29.54
411.908	35.54
412.036	11.54
412.163	42.54
412.29	24.54
412.418	13.54
412.545	25.54
412.672	24.54
412.8	38.54
412.927	32.54
413.054	40.54
413.182	42.54
413.309	35.54
413.436	17.54
413.564	18.54
413.691	17.54
413.818	41.54
413.945	24.54
414.073	19.54
414.2	30.54
414.327	32.54
414.454	44.54
414.582	29.54
414.709	7.54
414.836	38.54
414.963	17.54
415.091	33.54
415.218	27.54
415.345	38.54
415.472	18.54
415.6	22.54
415.727	32.54
415.854	28.54
415.981	8.54
416.108	28.54
416.236	26.54
416.363	31.54
416.49	27.54
416.617	11.54
416.744	30.54
416.871	37.54
416.998	3.54
417.126	22.54
417.253	11.54
417.38	20.54
417.507	19.54
417.634	27.54
417.761	40.54
417.888	52.54
418.015	28.54
418.143	42.54
418.27	40.54
418.397	15.54
418.524	20.54
418.651	23.54
418.778	36.54
