Data from LowRes_mercury_15_20_11_07_2024_HR4C61881__43__15-23-36-571.txt Node

Date: Thu Nov 07 15:23:36 EST 2024
User: crc00042
Spectrometer: HR4C6188
Trigger mode: 4
Integration Time (sec): 1.000000E-1
Scans to average: 1
Electric dark correction enabled: true
Nonlinearity correction enabled: false
Boxcar width: 0
XAxis mode: Wavelengths
Number of Pixels in Spectrum: 3648
>>>>>Begin Spectral Data<<<<<
245.66	-68.31
245.797	-68.31
245.934	-68.31
246.071	-80.31
246.208	2.69
246.344	-6.31
246.481	-14.31
246.618	-7.31
246.755	11.69
246.892	-11.31
247.029	-3.31
247.165	-4.31
247.302	17.69
247.439	3.69
247.576	7.69
247.713	-19.31
247.849	28.69
247.986	-3.31
248.123	10.69
248.26	2.69
248.396	24.69
248.533	20.69
248.67	-4.31
248.806	-5.31
248.943	-4.31
249.08	7.69
249.216	8.69
249.353	-11.31
249.49	-10.31
249.626	-2.31
249.763	-7.31
249.9	1.69
250.036	15.69
250.173	7.69
250.309	-2.31
250.446	4.69
250.582	0.69
250.719	-0.31
250.856	16.69
250.992	12.69
251.129	4.69
251.265	1.69
251.402	8.69
251.538	-11.31
251.675	-15.31
251.811	14.69
251.948	13.69
252.084	0.69
252.221	10.69
252.357	11.69
252.493	37.69
252.63	-11.31
252.766	17.69
252.903	4.69
253.039	3.69
253.175	-2.31
253.312	24.69
253.448	1.69
253.585	-2.31
253.721	28.69
253.857	-14.31
253.994	-2.31
254.13	8.69
254.266	12.69
254.403	23.69
254.539	14.69
254.675	34.69
254.811	34.69
254.948	11.69
255.084	0.69
255.22	-1.31
255.356	1.69
255.493	23.69
255.629	11.69
255.765	12.69
255.901	16.69
256.037	3.69
256.174	18.69
256.31	-13.31
256.446	-9.31
256.582	2.69
256.718	21.69
256.854	29.69
256.991	-6.31
257.127	5.69
257.263	-3.31
257.399	13.69
257.535	-24.31
257.671	8.69
257.807	-1.31
257.943	-1.31
258.079	-7.31
258.215	12.69
258.351	16.69
258.487	-1.31
258.623	19.69
258.759	5.69
258.895	-3.31
259.031	11.69
259.167	-3.31
259.303	25.69
259.439	-9.31
259.575	-4.31
259.711	-8.31
259.847	-4.31
259.983	0.69
260.119	7.69
260.255	-3.31
260.391	4.69
260.527	16.69
260.663	27.69
260.799	7.69
260.934	20.69
261.07	-10.31
261.206	-13.31
261.342	-8.31
261.478	23.69
261.614	5.69
261.749	20.69
261.885	7.69
262.021	-5.31
262.157	24.69
262.293	15.69
262.428	0.69
262.564	-19.31
262.7	13.69
262.836	0.69
262.971	28.69
263.107	18.69
263.243	17.69
263.378	21.69
263.514	-15.31
263.65	4.69
263.785	-3.31
263.921	21.69
264.057	17.69
264.192	22.69
264.328	32.69
264.464	13.69
264.599	2.69
264.735	18.69
264.871	9.69
265.006	-1.31
265.142	2.69
265.277	16.69
265.413	9.69
265.548	13.69
265.684	25.69
265.819	11.69
265.955	7.69
266.091	-7.31
266.226	-0.31
266.362	9.69
266.497	10.69
266.633	9.69
266.768	-10.31
266.903	34.69
267.039	33.69
267.174	6.69
267.31	9.69
267.445	-3.31
267.581	0.69
267.716	10.69
267.851	6.69
267.987	21.69
268.122	32.69
268.258	-4.31
268.393	2.69
268.528	5.69
268.664	0.69
268.799	4.69
268.934	17.69
269.07	12.69
269.205	13.69
269.34	16.69
269.476	1.69
269.611	-13.31
269.746	39.69
269.881	10.69
270.017	17.69
270.152	16.69
270.287	18.69
270.422	15.69
270.558	0.69
270.693	5.69
270.828	-4.31
270.963	-5.31
271.098	0.69
271.234	5.69
271.369	19.69
271.504	3.69
271.639	-2.31
271.774	11.69
271.909	4.69
272.045	-8.31
272.18	-0.31
272.315	-4.31
272.45	19.69
272.585	-22.31
272.72	19.69
272.855	-1.31
272.99	21.69
273.125	-7.31
273.26	4.69
273.395	-9.31
273.53	1.69
273.665	15.69
273.8	13.69
273.935	0.69
274.07	2.69
274.205	-2.31
274.34	1.69
274.475	1.69
274.61	6.69
274.745	0.69
274.88	28.69
275.015	-7.31
275.15	2.69
275.285	18.69
275.42	17.69
275.555	17.69
275.69	13.69
275.825	-16.31
275.959	1.69
276.094	-4.31
276.229	2.69
276.364	-6.31
276.499	-2.31
276.634	13.69
276.768	-4.31
276.903	5.69
277.038	19.69
277.173	17.69
277.308	-0.31
277.442	0.69
277.577	-14.31
277.712	14.69
277.847	13.69
277.981	-5.31
278.116	-7.31
278.251	7.69
278.386	10.69
278.52	9.69
278.655	8.69
278.79	19.69
278.924	11.69
279.059	33.69
279.194	-6.31
279.328	49.69
279.463	20.69
279.598	23.69
279.732	23.69
279.867	13.69
280.001	19.69
280.136	5.69
280.271	24.69
280.405	-3.31
280.54	-10.31
280.674	-8.31
280.809	10.69
280.943	-2.31
281.078	17.69
281.213	36.69
281.347	22.69
281.482	25.69
281.616	-9.31
281.751	19.69
281.885	-19.31
282.02	-4.31
282.154	4.69
282.288	-2.31
282.423	-11.31
282.557	-11.31
282.692	16.69
282.826	0.69
282.961	23.69
283.095	2.69
283.229	-3.31
283.364	5.69
283.498	25.69
283.633	16.69
283.767	-2.31
283.901	-1.31
284.036	-3.31
284.17	7.69
284.304	-1.31
284.439	12.69
284.573	0.69
284.707	30.69
284.842	-1.31
284.976	1.69
285.11	-6.31
285.244	23.69
285.379	42.69
285.513	-4.31
285.647	31.69
285.781	15.69
285.916	26.69
286.05	-5.31
286.184	33.69
286.318	7.69
286.453	1.69
286.587	-11.31
286.721	-10.31
286.855	1.69
286.989	7.69
287.123	9.69
287.258	15.69
287.392	2.69
287.526	10.69
287.66	2.69
287.794	13.69
287.928	2.69
288.062	9.69
288.196	6.69
288.33	9.69
288.464	5.69
288.598	16.69
288.733	28.69
288.867	30.69
289.001	11.69
289.135	-8.31
289.269	-12.31
289.403	13.69
289.537	9.69
289.671	2.69
289.805	-23.31
289.939	8.69
290.073	6.69
290.207	18.69
290.34	0.69
290.474	19.69
290.608	8.69
290.742	1.69
290.876	0.69
291.01	8.69
291.144	42.69
291.278	30.69
291.412	21.69
291.546	5.69
291.679	-7.31
291.813	11.69
291.947	3.69
292.081	0.69
292.215	-14.31
292.349	12.69
292.482	11.69
292.616	16.69
292.75	16.69
292.884	5.69
293.018	19.69
293.151	-14.31
293.285	7.69
293.419	-8.31
293.553	-1.31
293.686	-3.31
293.82	-10.31
293.954	11.69
294.088	33.69
294.221	-0.31
294.355	-19.31
294.489	9.69
294.622	7.69
294.756	21.69
294.89	6.69
295.023	14.69
295.157	3.69
295.291	19.69
295.424	26.69
295.558	27.69
295.691	2.69
295.825	13.69
295.959	14.69
296.092	1.69
296.226	8.69
296.359	12.69
296.493	-0.31
296.627	5.69
296.76	5.69
296.894	6.69
297.027	-4.31
297.161	-4.31
297.294	-13.31
297.428	3.69
297.561	28.69
297.695	-0.31
297.828	8.69
297.962	-4.31
298.095	5.69
298.229	12.69
298.362	8.69
298.495	-13.31
298.629	-3.31
298.762	7.69
298.896	8.69
299.029	-5.31
299.162	9.69
299.296	17.69
299.429	5.69
299.563	6.69
299.696	4.69
299.829	5.69
299.963	12.69
300.096	18.69
300.229	15.69
300.363	9.69
300.496	11.69
300.629	0.69
300.763	12.69
300.896	13.69
301.029	36.69
301.162	8.69
301.296	-6.31
301.429	2.69
301.562	-10.31
301.695	25.69
301.829	17.69
301.962	11.69
302.095	-1.31
302.228	-3.31
302.362	3.69
302.495	8.69
302.628	0.69
302.761	18.69
302.894	-4.31
303.027	27.69
303.161	10.69
303.294	12.69
303.427	11.69
303.56	-0.31
303.693	-8.31
303.826	-5.31
303.959	17.69
304.092	-6.31
304.225	18.69
304.359	4.69
304.492	21.69
304.625	4.69
304.758	17.69
304.891	-7.31
305.024	17.69
305.157	-5.31
305.29	-0.31
305.423	6.69
305.556	32.69
305.689	14.69
305.822	-5.31
305.955	11.69
306.088	1.69
306.221	7.69
306.354	-10.31
306.487	10.69
306.62	-3.31
306.752	-0.31
306.885	13.69
307.018	24.69
307.151	21.69
307.284	10.69
307.417	16.69
307.55	17.69
307.683	-3.31
307.816	4.69
307.948	-2.31
308.081	-1.31
308.214	2.69
308.347	22.69
308.48	10.69
308.613	-1.31
308.745	4.69
308.878	16.69
309.011	9.69
309.144	17.69
309.277	4.69
309.409	20.69
309.542	17.69
309.675	14.69
309.808	9.69
309.94	41.69
310.073	-3.31
310.206	-12.31
310.339	8.69
310.471	-15.31
310.604	13.69
310.737	-7.31
310.869	4.69
311.002	14.69
311.135	16.69
311.267	-13.31
311.4	10.69
311.533	32.69
311.665	-3.31
311.798	-0.31
311.93	11.69
312.063	32.69
312.196	28.69
312.328	83.69
312.461	50.69
312.593	30.69
312.726	54.69
312.859	82.69
312.991	164.69
313.124	43.69
313.256	19.69
313.389	17.69
313.521	-10.31
313.654	-9.31
313.786	-13.31
313.919	-1.31
314.051	2.69
314.184	7.69
314.316	25.69
314.449	-14.31
314.581	2.69
314.714	13.69
314.846	10.69
314.978	-1.31
315.111	-8.31
315.243	8.69
315.376	-3.31
315.508	-2.31
315.641	3.69
315.773	23.69
315.905	-2.31
316.038	4.69
316.17	5.69
316.302	13.69
316.435	8.69
316.567	15.69
316.699	13.69
316.832	-3.31
316.964	3.69
317.096	-14.31
317.229	-2.31
317.361	-2.31
317.493	-1.31
317.625	9.69
317.758	6.69
317.89	8.69
318.022	5.69
318.155	1.69
318.287	0.69
318.419	-7.31
318.551	7.69
318.683	-3.31
318.816	-7.31
318.948	-3.31
319.08	-9.31
319.212	7.69
319.344	10.69
319.477	15.69
319.609	21.69
319.741	10.69
319.873	0.69
320.005	17.69
320.137	8.69
320.269	21.69
320.401	4.69
320.534	19.69
320.666	-17.31
320.798	-5.31
320.93	-8.31
321.062	13.69
321.194	-9.31
321.326	4.69
321.458	19.69
321.59	30.69
321.722	8.69
321.854	-5.31
321.986	-3.31
322.118	-5.31
322.25	-23.31
322.382	-4.31
322.514	-9.31
322.646	-6.31
322.778	23.69
322.91	12.69
323.042	12.69
323.174	11.69
323.306	8.69
323.438	-3.31
323.57	10.69
323.702	8.69
323.834	2.69
323.966	-3.31
324.097	1.69
324.229	18.69
324.361	9.69
324.493	2.69
324.625	-0.31
324.757	5.69
324.889	-5.31
325.021	23.69
325.152	19.69
325.284	27.69
325.416	2.69
325.548	17.69
325.68	7.69
325.811	32.69
325.943	18.69
326.075	-7.31
326.207	14.69
326.339	20.69
326.47	-3.31
326.602	12.69
326.734	17.69
326.866	23.69
326.997	-6.31
327.129	1.69
327.261	0.69
327.392	-3.31
327.524	10.69
327.656	3.69
327.787	16.69
327.919	-3.31
328.051	-0.31
328.182	26.69
328.314	27.69
328.446	-11.31
328.577	23.69
328.709	-8.31
328.841	-7.31
328.972	1.69
329.104	-1.31
329.235	5.69
329.367	10.69
329.499	8.69
329.63	20.69
329.762	-1.31
329.893	24.69
330.025	7.69
330.156	-7.31
330.288	5.69
330.419	15.69
330.551	32.69
330.683	4.69
330.814	7.69
330.946	37.69
331.077	4.69
331.208	-1.31
331.34	7.69
331.471	-2.31
331.603	-2.31
331.734	-5.31
331.866	8.69
331.997	9.69
332.129	8.69
332.26	11.69
332.392	13.69
332.523	-3.31
332.654	6.69
332.786	23.69
332.917	20.69
333.048	22.69
333.18	21.69
333.311	8.69
333.443	5.69
333.574	19.69
333.705	26.69
333.837	31.69
333.968	128.69
334.099	220.69
334.231	215.69
334.362	62.69
334.493	39.69
334.624	30.69
334.756	24.69
334.887	5.69
335.018	6.69
335.15	19.69
335.281	13.69
335.412	29.69
335.543	20.69
335.675	25.69
335.806	24.69
335.937	19.69
336.068	25.69
336.199	50.69
336.331	26.69
336.462	21.69
336.593	24.69
336.724	0.69
336.855	6.69
336.986	32.69
337.118	19.69
337.249	10.69
337.38	24.69
337.511	14.69
337.642	11.69
337.773	13.69
337.904	33.69
338.035	17.69
338.166	-2.31
338.298	11.69
338.429	-8.31
338.56	33.69
338.691	36.69
338.822	31.69
338.953	19.69
339.084	22.69
339.215	12.69
339.346	10.69
339.477	4.69
339.608	17.69
339.739	6.69
339.87	11.69
340.001	13.69
340.132	23.69
340.263	4.69
340.394	17.69
340.525	13.69
340.656	-7.31
340.787	-2.31
340.918	36.69
341.049	24.69
341.179	13.69
341.31	3.69
341.441	16.69
341.572	25.69
341.703	27.69
341.834	0.69
341.965	30.69
342.096	5.69
342.227	29.69
342.357	6.69
342.488	24.69
342.619	10.69
342.75	5.69
342.881	-1.31
343.012	23.69
343.142	44.69
343.273	18.69
343.404	18.69
343.535	53.69
343.666	47.69
343.796	37.69
343.927	37.69
344.058	31.69
344.189	34.69
344.319	27.69
344.45	24.69
344.581	5.69
344.712	3.69
344.842	18.69
344.973	22.69
345.104	38.69
345.234	28.69
345.365	16.69
345.496	15.69
345.626	16.69
345.757	32.69
345.888	5.69
346.018	25.69
346.149	28.69
346.28	53.69
346.41	25.69
346.541	43.69
346.672	36.69
346.802	24.69
346.933	35.69
347.063	20.69
347.194	43.69
347.325	44.69
347.455	42.69
347.586	43.69
347.716	13.69
347.847	27.69
347.977	49.69
348.108	34.69
348.238	35.69
348.369	57.69
348.499	51.69
348.63	36.69
348.76	55.69
348.891	56.69
349.021	63.69
349.152	54.69
349.282	52.69
349.413	45.69
349.543	71.69
349.674	42.69
349.804	47.69
349.935	26.69
350.065	25.69
350.196	29.69
350.326	29.69
350.456	22.69
350.587	38.69
350.717	47.69
350.848	53.69
350.978	21.69
351.108	25.69
351.239	49.69
351.369	23.69
351.499	13.69
351.63	19.69
351.76	8.69
351.89	19.69
352.021	21.69
352.151	21.69
352.281	28.69
352.412	39.69
352.542	18.69
352.672	15.69
352.803	21.69
352.933	26.69
353.063	23.69
353.193	25.69
353.324	26.69
353.454	34.69
353.584	29.69
353.714	22.69
353.845	34.69
353.975	19.69
354.105	23.69
354.235	35.69
354.365	30.69
354.496	24.69
354.626	20.69
354.756	41.69
354.886	18.69
355.016	28.69
355.146	24.69
355.277	27.69
355.407	20.69
355.537	33.69
355.667	29.69
355.797	23.69
355.927	23.69
356.057	34.69
356.187	17.69
356.318	23.69
356.448	36.69
356.578	28.69
356.708	44.69
356.838	46.69
356.968	28.69
357.098	25.69
357.228	37.69
357.358	25.69
357.488	34.69
357.618	58.69
357.748	28.69
357.878	28.69
358.008	11.69
358.138	24.69
358.268	24.69
358.398	23.69
358.528	14.69
358.658	50.69
358.788	24.69
358.918	31.69
359.048	35.69
359.178	46.69
359.308	31.69
359.438	47.69
359.568	44.69
359.698	20.69
359.827	26.69
359.957	18.69
360.087	28.69
360.217	20.69
360.347	28.69
360.477	40.69
360.607	11.69
360.737	49.69
360.866	25.69
360.996	21.69
361.126	24.69
361.256	42.69
361.386	43.69
361.516	63.69
361.645	25.69
361.775	47.69
361.905	28.69
362.035	49.69
362.165	37.69
362.294	46.69
362.424	44.69
362.554	45.69
362.684	43.69
362.813	43.69
362.943	57.69
363.073	72.69
363.203	77.69
363.332	89.69
363.462	73.69
363.592	101.69
363.721	126.69
363.851	177.69
363.981	207.69
364.111	248.69
364.24	311.69
364.37	487.69
364.5	868.69
364.629	1817.69
364.759	3826.69
364.888	6229.69
365.018	9394.69
365.148	14803.69
365.277	12962.69
365.407	4697.69
365.537	3072.69
365.666	3997.69
365.796	1846.69
365.925	784.69
366.055	745.69
366.184	1028.69
366.314	1412.69
366.444	2464.69
366.573	2121.69
366.703	655.69
366.832	217.69
366.962	124.69
367.091	87.69
367.221	70.69
367.35	52.69
367.48	81.69
367.609	58.69
367.739	62.69
367.868	34.69
367.998	60.69
368.127	57.69
368.257	63.69
368.386	66.69
368.516	43.69
368.645	48.69
368.775	59.69
368.904	44.69
369.033	19.69
369.163	4.69
369.292	41.69
369.422	45.69
369.551	43.69
369.68	40.69
369.81	40.69
369.939	32.69
370.069	66.69
370.198	47.69
370.327	32.69
370.457	51.69
370.586	40.69
370.715	37.69
370.845	45.69
370.974	46.69
371.103	61.69
371.233	57.69
371.362	44.69
371.491	28.69
371.621	63.69
371.75	44.69
371.879	46.69
372.008	35.69
372.138	63.69
372.267	56.69
372.396	39.69
372.525	47.69
372.655	40.69
372.784	27.69
372.913	32.69
373.042	47.69
373.172	46.69
373.301	1.69
373.43	22.69
373.559	18.69
373.688	29.69
373.818	34.69
373.947	43.69
374.076	8.69
374.205	29.69
374.334	14.69
374.463	25.69
374.593	41.69
374.722	15.69
374.851	37.69
374.98	20.69
375.109	23.69
375.238	26.69
375.367	41.69
375.496	-1.31
375.625	4.69
375.755	29.69
375.884	43.69
376.013	10.69
376.142	25.69
376.271	1.69
376.4	9.69
376.529	23.69
376.658	36.69
376.787	33.69
376.916	23.69
377.045	11.69
377.174	30.69
377.303	30.69
377.432	42.69
377.561	24.69
377.69	29.69
377.819	49.69
377.948	26.69
378.077	12.69
378.206	17.69
378.335	30.69
378.464	28.69
378.593	39.69
378.722	4.69
378.851	24.69
378.98	45.69
379.108	27.69
379.237	24.69
379.366	41.69
379.495	36.69
379.624	39.69
379.753	32.69
379.882	18.69
380.011	8.69
380.14	1.69
380.268	15.69
380.397	23.69
380.526	37.69
380.655	20.69
380.784	-0.31
380.913	3.69
381.041	-0.31
381.17	-9.31
381.299	7.69
381.428	27.69
381.557	15.69
381.685	2.69
381.814	28.69
381.943	34.69
382.072	29.69
382.2	29.69
382.329	25.69
382.458	27.69
382.587	35.69
382.715	38.69
382.844	35.69
382.973	26.69
383.102	25.69
383.23	16.69
383.359	-2.31
383.488	23.69
383.616	9.69
383.745	1.69
383.874	28.69
384.003	21.69
384.131	14.69
384.26	35.69
384.389	18.69
384.517	11.69
384.646	-4.31
384.774	15.69
384.903	34.69
385.032	36.69
385.16	18.69
385.289	32.69
385.418	24.69
385.546	37.69
385.675	22.69
385.803	3.69
385.932	25.69
386.06	2.69
386.189	12.69
386.318	19.69
386.446	9.69
386.575	33.69
386.703	19.69
386.832	9.69
386.96	-5.31
387.089	24.69
387.217	15.69
387.346	18.69
387.474	25.69
387.603	15.69
387.731	30.69
387.86	14.69
387.988	8.69
388.117	42.69
388.245	27.69
388.374	13.69
388.502	20.69
388.631	12.69
388.759	20.69
388.888	23.69
389.016	14.69
389.144	23.69
389.273	36.69
389.401	7.69
389.53	0.69
389.658	33.69
389.786	26.69
389.915	18.69
390.043	13.69
390.172	24.69
390.3	55.69
390.428	39.69
390.557	24.69
390.685	29.69
390.813	53.69
390.942	35.69
391.07	27.69
391.198	8.69
391.327	13.69
391.455	0.69
391.583	20.69
391.712	26.69
391.84	15.69
391.968	17.69
392.096	16.69
392.225	21.69
392.353	35.69
392.481	28.69
392.609	42.69
392.738	37.69
392.866	33.69
392.994	6.69
393.122	56.69
393.251	18.69
393.379	12.69
393.507	12.69
393.635	19.69
393.764	27.69
393.892	35.69
394.02	18.69
394.148	28.69
394.276	26.69
394.404	56.69
394.533	35.69
394.661	31.69
394.789	58.69
394.917	52.69
395.045	25.69
395.173	14.69
395.302	20.69
395.43	39.69
395.558	29.69
395.686	36.69
395.814	39.69
395.942	30.69
396.07	30.69
396.198	39.69
396.326	44.69
396.454	40.69
396.582	38.69
396.711	19.69
396.839	41.69
396.967	35.69
397.095	30.69
397.223	37.69
397.351	40.69
397.479	38.69
397.607	35.69
397.735	67.69
397.863	52.69
397.991	60.69
398.119	33.69
398.247	46.69
398.375	70.69
398.503	50.69
398.631	59.69
398.759	63.69
398.887	46.69
399.015	49.69
399.143	63.69
399.271	75.69
399.399	73.69
399.526	75.69
399.654	90.69
399.782	65.69
399.91	113.69
400.038	96.69
400.166	81.69
400.294	105.69
400.422	82.69
400.55	93.69
400.678	109.69
400.805	96.69
400.933	119.69
401.061	123.69
401.189	120.69
401.317	139.69
401.445	113.69
401.573	71.69
401.7	62.69
401.828	53.69
401.956	53.69
402.084	48.69
402.212	46.69
402.34	37.69
402.467	43.69
402.595	43.69
402.723	45.69
402.851	56.69
402.978	57.69
403.106	83.69
403.234	96.69
403.362	114.69
403.489	133.69
403.617	147.69
403.745	211.69
403.873	286.69
404	573.69
404.128	1427.69
404.256	3867.69
404.384	5020.69
404.511	5377.69
404.639	7124.69
404.767	11396.69
404.894	14574.69
405.022	4872.69
405.15	1296.69
405.277	428.69
405.405	233.69
405.533	123.69
405.66	100.69
405.788	63.69
405.916	65.69
406.043	48.69
406.171	59.69
406.299	59.69
406.426	63.69
406.554	48.69
406.681	65.69
406.809	56.69
406.937	60.69
407.064	59.69
407.192	132.69
407.319	304.69
407.447	521.69
407.574	537.69
407.702	638.69
407.83	834.69
407.957	1598.69
408.085	950.69
408.212	266.69
408.34	96.69
408.467	67.69
408.595	69.69
408.722	54.69
408.85	66.69
408.977	23.69
409.105	52.69
409.232	39.69
409.36	20.69
409.487	23.69
409.615	32.69
409.742	47.69
409.87	47.69
409.997	26.69
410.125	37.69
410.252	49.69
410.379	28.69
410.507	57.69
410.634	44.69
410.762	24.69
410.889	49.69
411.017	37.69
411.144	13.69
411.271	19.69
411.399	21.69
411.526	37.69
411.653	22.69
411.781	37.69
411.908	29.69
412.036	30.69
412.163	33.69
412.29	28.69
412.418	36.69
412.545	43.69
412.672	26.69
412.8	75.69
412.927	38.69
413.054	54.69
413.182	31.69
413.309	32.69
413.436	27.69
413.564	19.69
413.691	27.69
413.818	38.69
413.945	8.69
414.073	23.69
414.2	25.69
414.327	27.69
414.454	35.69
414.582	47.69
414.709	0.69
414.836	16.69
414.963	32.69
415.091	43.69
415.218	38.69
415.345	23.69
415.472	30.69
415.6	30.69
415.727	21.69
415.854	30.69
415.981	28.69
416.108	28.69
416.236	32.69
416.363	23.69
416.49	33.69
416.617	21.69
416.744	35.69
416.871	34.69
416.998	24.69
417.126	41.69
417.253	35.69
417.38	17.69
417.507	47.69
417.634	28.69
417.761	22.69
417.888	30.69
418.015	34.69
418.143	37.69
418.27	43.69
418.397	29.69
418.524	31.69
418.651	45.69
418.778	25.69
418.905	43.69
419.032	43.69
419.159	50.69
419.286	50.69
