Data from LowRes_mercury_15_20_11_07_2024_HR4C61881__78__15-23-40-070.txt Node

Date: Thu Nov 07 15:23:40 EST 2024
User: crc00042
Spectrometer: HR4C6188
Trigger mode: 4
Integration Time (sec): 1.000000E-1
Scans to average: 1
Electric dark correction enabled: true
Nonlinearity correction enabled: false
Boxcar width: 0
XAxis mode: Wavelengths
Number of Pixels in Spectrum: 3648
>>>>>Begin Spectral Data<<<<<
245.66	-62.85
245.797	-62.85
245.934	-62.85
246.071	-81.85
246.208	-2.85
246.344	-0.85
246.481	-14.85
246.618	-13.85
246.755	13.15
246.892	18.15
247.029	-11.85
247.165	-5.85
247.302	9.15
247.439	-11.85
247.576	22.15
247.713	-11.85
247.849	21.15
247.986	-12.85
248.123	-11.85
248.26	-22.85
248.396	-15.85
248.533	0.15
248.67	-8.85
248.806	5.15
248.943	-39.85
249.08	-12.85
249.216	10.15
249.353	-17.85
249.49	-15.85
249.626	-0.85
249.763	-11.85
249.9	-21.85
250.036	-14.85
250.173	-13.85
250.309	-3.85
250.446	-5.85
250.582	-22.85
250.719	-2.85
250.856	-14.85
250.992	-27.85
251.129	-9.85
251.265	-11.85
251.402	-13.85
251.538	9.15
251.675	-12.85
251.811	-1.85
251.948	9.15
252.084	-1.85
252.221	-11.85
252.357	-21.85
252.493	6.15
252.63	-1.85
252.766	8.15
252.903	-13.85
253.039	-11.85
253.175	-2.85
253.312	1.15
253.448	-25.85
253.585	-20.85
253.721	8.15
253.857	-7.85
253.994	4.15
254.13	0.15
254.266	13.15
254.403	-9.85
254.539	-0.85
254.675	1.15
254.811	-10.85
254.948	-7.85
255.084	-4.85
255.22	-10.85
255.356	-1.85
255.493	1.15
255.629	-11.85
255.765	-5.85
255.901	4.15
256.037	-1.85
256.174	19.15
256.31	-12.85
256.446	-18.85
256.582	-2.85
256.718	7.15
256.854	9.15
256.991	-18.85
257.127	26.15
257.263	-10.85
257.399	-11.85
257.535	-5.85
257.671	1.15
257.807	9.15
257.943	-2.85
258.079	-30.85
258.215	-8.85
258.351	7.15
258.487	-10.85
258.623	8.15
258.759	-10.85
258.895	5.15
259.031	-25.85
259.167	-19.85
259.303	0.15
259.439	-11.85
259.575	-7.85
259.711	-16.85
259.847	-11.85
259.983	-3.85
260.119	-9.85
260.255	-17.85
260.391	-9.85
260.527	-2.85
260.663	11.15
260.799	-1.85
260.934	-9.85
261.07	-0.85
261.206	-4.85
261.342	-22.85
261.478	5.15
261.614	11.15
261.749	-3.85
261.885	-1.85
262.021	-22.85
262.157	12.15
262.293	-11.85
262.428	-24.85
262.564	-18.85
262.7	-2.85
262.836	6.15
262.971	18.15
263.107	-16.85
263.243	5.15
263.378	6.15
263.514	-23.85
263.65	-5.85
263.785	-26.85
263.921	-12.85
264.057	-8.85
264.192	5.15
264.328	2.15
264.464	-0.85
264.599	5.15
264.735	7.15
264.871	-12.85
265.006	-13.85
265.142	-2.85
265.277	-11.85
265.413	-10.85
265.548	-22.85
265.684	13.15
265.819	-5.85
265.955	-28.85
266.091	-21.85
266.226	-21.85
266.362	-22.85
266.497	-16.85
266.633	-19.85
266.768	5.15
266.903	-2.85
267.039	1.15
267.174	17.15
267.31	-6.85
267.445	-14.85
267.581	-10.85
267.716	-0.85
267.851	10.15
267.987	5.15
268.122	17.15
268.258	-10.85
268.393	-13.85
268.528	0.15
268.664	-17.85
268.799	-26.85
268.934	3.15
269.07	-34.85
269.205	0.15
269.34	21.15
269.476	6.15
269.611	-12.85
269.746	-3.85
269.881	2.15
270.017	7.15
270.152	-11.85
270.287	-4.85
270.422	7.15
270.558	-0.85
270.693	4.15
270.828	-18.85
270.963	-5.85
271.098	-11.85
271.234	-7.85
271.369	4.15
271.504	1.15
271.639	-28.85
271.774	-17.85
271.909	-9.85
272.045	-29.85
272.18	3.15
272.315	-10.85
272.45	6.15
272.585	1.15
272.72	-0.85
272.855	3.15
272.99	18.15
273.125	-9.85
273.26	-20.85
273.395	-12.85
273.53	-5.85
273.665	1.15
273.8	-13.85
273.935	-2.85
274.07	-11.85
274.205	4.15
274.34	-9.85
274.475	-0.85
274.61	11.15
274.745	17.15
274.88	17.15
275.015	-19.85
275.15	-5.85
275.285	2.15
275.42	-3.85
275.555	-5.85
275.69	-5.85
275.825	-19.85
275.959	-8.85
276.094	-9.85
276.229	6.15
276.364	-3.85
276.499	-18.85
276.634	-7.85
276.768	-5.85
276.903	3.15
277.038	6.15
277.173	0.15
277.308	-17.85
277.442	-24.85
277.577	-17.85
277.712	-5.85
277.847	0.15
277.981	8.15
278.116	-10.85
278.251	11.15
278.386	-5.85
278.52	17.15
278.655	8.15
278.79	1.15
278.924	5.15
279.059	6.15
279.194	-10.85
279.328	19.15
279.463	1.15
279.598	10.15
279.732	8.15
279.867	6.15
280.001	5.15
280.136	17.15
280.271	2.15
280.405	-12.85
280.54	-5.85
280.674	-15.85
280.809	23.15
280.943	8.15
281.078	7.15
281.213	10.15
281.347	9.15
281.482	2.15
281.616	2.15
281.751	3.15
281.885	-26.85
282.02	-4.85
282.154	6.15
282.288	-12.85
282.423	-7.85
282.557	-24.85
282.692	6.15
282.826	-8.85
282.961	9.15
283.095	0.15
283.229	-2.85
283.364	-3.85
283.498	-9.85
283.633	4.15
283.767	-3.85
283.901	-13.85
284.036	-0.85
284.17	-2.85
284.304	-9.85
284.439	-6.85
284.573	-5.85
284.707	15.15
284.842	-1.85
284.976	-10.85
285.11	-24.85
285.244	2.15
285.379	44.15
285.513	-15.85
285.647	-2.85
285.781	-12.85
285.916	20.15
286.05	-9.85
286.184	8.15
286.318	10.15
286.453	-14.85
286.587	-14.85
286.721	-13.85
286.855	3.15
286.989	8.15
287.123	0.15
287.258	10.15
287.392	-6.85
287.526	-8.85
287.66	-15.85
287.794	-7.85
287.928	-6.85
288.062	2.15
288.196	-2.85
288.33	1.15
288.464	28.15
288.598	9.15
288.733	3.15
288.867	17.15
289.001	-0.85
289.135	4.15
289.269	-16.85
289.403	-18.85
289.537	-3.85
289.671	0.15
289.805	-17.85
289.939	-27.85
290.073	-19.85
290.207	6.15
290.34	1.15
290.474	-1.85
290.608	-1.85
290.742	-13.85
290.876	-16.85
291.01	-13.85
291.144	25.15
291.278	12.15
291.412	-9.85
291.546	-20.85
291.679	-13.85
291.813	4.15
291.947	-6.85
292.081	8.15
292.215	-8.85
292.349	-2.85
292.482	7.15
292.616	-10.85
292.75	-12.85
292.884	5.15
293.018	-4.85
293.151	-2.85
293.285	1.15
293.419	-17.85
293.553	4.15
293.686	-3.85
293.82	11.15
293.954	15.15
294.088	0.15
294.221	-12.85
294.355	-2.85
294.489	-7.85
294.622	-8.85
294.756	-7.85
294.89	-10.85
295.023	6.15
295.157	4.15
295.291	-2.85
295.424	23.15
295.558	-17.85
295.691	-1.85
295.825	2.15
295.959	1.15
296.092	-6.85
296.226	1.15
296.359	5.15
296.493	7.15
296.627	-7.85
296.76	-10.85
296.894	-13.85
297.027	-12.85
297.161	-0.85
297.294	-26.85
297.428	-10.85
297.561	13.15
297.695	2.15
297.828	-31.85
297.962	-10.85
298.095	-11.85
298.229	-17.85
298.362	0.15
298.495	-5.85
298.629	-8.85
298.762	2.15
298.896	-12.85
299.029	-6.85
299.162	17.15
299.296	-9.85
299.429	0.15
299.563	6.15
299.696	10.15
299.829	-6.85
299.963	19.15
300.096	-10.85
300.229	-17.85
300.363	-2.85
300.496	15.15
300.629	-14.85
300.763	-9.85
300.896	-3.85
301.029	8.15
301.162	-12.85
301.296	-31.85
301.429	-9.85
301.562	-42.85
301.695	0.15
301.829	10.15
301.962	5.15
302.095	-18.85
302.228	-10.85
302.362	15.15
302.495	-15.85
302.628	3.15
302.761	-36.85
302.894	3.15
303.027	15.15
303.161	-14.85
303.294	-16.85
303.427	0.15
303.56	-10.85
303.693	0.15
303.826	-8.85
303.959	0.15
304.092	5.15
304.225	-15.85
304.359	-12.85
304.492	-9.85
304.625	-13.85
304.758	9.15
304.891	-23.85
305.024	-11.85
305.157	-3.85
305.29	-27.85
305.423	-6.85
305.556	2.15
305.689	12.15
305.822	-17.85
305.955	-2.85
306.088	-3.85
306.221	2.15
306.354	-4.85
306.487	-4.85
306.62	-11.85
306.752	-9.85
306.885	13.15
307.018	-11.85
307.151	-0.85
307.284	-7.85
307.417	-10.85
307.55	1.15
307.683	5.15
307.816	5.15
307.948	-0.85
308.081	8.15
308.214	-4.85
308.347	24.15
308.48	-22.85
308.613	-11.85
308.745	-0.85
308.878	-7.85
309.011	-11.85
309.144	0.15
309.277	-11.85
309.409	14.15
309.542	-12.85
309.675	-3.85
309.808	-5.85
309.94	1.15
310.073	-25.85
310.206	-14.85
310.339	3.15
310.471	-19.85
310.604	6.15
310.737	-8.85
310.869	-3.85
311.002	-10.85
311.135	-15.85
311.267	-28.85
311.4	1.15
311.533	24.15
311.665	-19.85
311.798	-7.85
311.93	5.15
312.063	19.15
312.196	41.15
312.328	76.15
312.461	31.15
312.593	27.15
312.726	39.15
312.859	77.15
312.991	159.15
313.124	29.15
313.256	8.15
313.389	10.15
313.521	-9.85
313.654	4.15
313.786	-10.85
313.919	-9.85
314.051	-15.85
314.184	-9.85
314.316	6.15
314.449	-9.85
314.581	-13.85
314.714	-0.85
314.846	-17.85
314.978	-9.85
315.111	5.15
315.243	20.15
315.376	1.15
315.508	2.15
315.641	-9.85
315.773	2.15
315.905	0.15
316.038	-5.85
316.17	-19.85
316.302	5.15
316.435	-11.85
316.567	-7.85
316.699	17.15
316.832	-15.85
316.964	-10.85
317.096	-18.85
317.229	-14.85
317.361	-28.85
317.493	-12.85
317.625	-23.85
317.758	4.15
317.89	13.15
318.022	1.15
318.155	-10.85
318.287	-1.85
318.419	-20.85
318.551	-1.85
318.683	-0.85
318.816	-13.85
318.948	-5.85
319.08	-16.85
319.212	5.15
319.344	-10.85
319.477	1.15
319.609	2.15
319.741	16.15
319.873	-10.85
320.005	-19.85
320.137	-1.85
320.269	-4.85
320.401	-7.85
320.534	-13.85
320.666	-30.85
320.798	-17.85
320.93	-8.85
321.062	-26.85
321.194	-10.85
321.326	12.15
321.458	-9.85
321.59	-35.85
321.722	-19.85
321.854	-28.85
321.986	0.15
322.118	-13.85
322.25	-30.85
322.382	-6.85
322.514	-6.85
322.646	-6.85
322.778	8.15
322.91	-16.85
323.042	-15.85
323.174	1.15
323.306	-12.85
323.438	-36.85
323.57	-11.85
323.702	-5.85
323.834	-5.85
323.966	-15.85
324.097	-15.85
324.229	6.15
324.361	-0.85
324.493	-5.85
324.625	-19.85
324.757	-22.85
324.889	-0.85
325.021	-9.85
325.152	10.15
325.284	27.15
325.416	-9.85
325.548	-1.85
325.68	-3.85
325.811	12.15
325.943	3.15
326.075	-1.85
326.207	22.15
326.339	6.15
326.47	-9.85
326.602	13.15
326.734	15.15
326.866	0.15
326.997	-22.85
327.129	-9.85
327.261	-13.85
327.392	-19.85
327.524	-7.85
327.656	5.15
327.787	14.15
327.919	4.15
328.051	7.15
328.182	14.15
328.314	19.15
328.446	-8.85
328.577	8.15
328.709	14.15
328.841	-13.85
328.972	-12.85
329.104	-29.85
329.235	5.15
329.367	-8.85
329.499	-9.85
329.63	5.15
329.762	0.15
329.893	21.15
330.025	20.15
330.156	-21.85
330.288	-16.85
330.419	8.15
330.551	-1.85
330.683	3.15
330.814	-6.85
330.946	26.15
331.077	-7.85
331.208	-14.85
331.34	-7.85
331.471	-28.85
331.603	-19.85
331.734	-25.85
331.866	4.15
331.997	-5.85
332.129	-11.85
332.26	-23.85
332.392	10.15
332.523	-10.85
332.654	-14.85
332.786	-3.85
332.917	-12.85
333.048	3.15
333.18	16.15
333.311	-4.85
333.443	-9.85
333.574	15.15
333.705	35.15
333.837	41.15
333.968	118.15
334.099	236.15
334.231	186.15
334.362	31.15
334.493	31.15
334.624	18.15
334.756	9.15
334.887	1.15
335.018	-6.85
335.15	5.15
335.281	29.15
335.412	25.15
335.543	-5.85
335.675	-7.85
335.806	-0.85
335.937	4.15
336.068	30.15
336.199	29.15
336.331	5.15
336.462	-11.85
336.593	2.15
336.724	-8.85
336.855	3.15
336.986	-14.85
337.118	-1.85
337.249	7.15
337.38	11.15
337.511	6.15
337.642	-4.85
337.773	1.15
337.904	3.15
338.035	15.15
338.166	5.15
338.298	8.15
338.429	-13.85
338.56	7.15
338.691	8.15
338.822	-1.85
338.953	21.15
339.084	26.15
339.215	9.15
339.346	20.15
339.477	23.15
339.608	-13.85
339.739	-7.85
339.87	1.15
340.001	-4.85
340.132	14.15
340.263	3.15
340.394	42.15
340.525	6.15
340.656	-15.85
340.787	-10.85
340.918	28.15
341.049	19.15
341.179	7.15
341.31	1.15
341.441	10.15
341.572	15.15
341.703	22.15
341.834	3.15
341.965	17.15
342.096	8.15
342.227	6.15
342.357	4.15
342.488	5.15
342.619	-0.85
342.75	3.15
342.881	-9.85
343.012	12.15
343.142	23.15
343.273	5.15
343.404	25.15
343.535	27.15
343.666	19.15
343.796	13.15
343.927	31.15
344.058	29.15
344.189	36.15
344.319	18.15
344.45	16.15
344.581	-1.85
344.712	-13.85
344.842	16.15
344.973	4.15
345.104	18.15
345.234	22.15
345.365	1.15
345.496	31.15
345.626	12.15
345.757	20.15
345.888	18.15
346.018	15.15
346.149	25.15
346.28	25.15
346.41	0.15
346.541	21.15
346.672	22.15
346.802	20.15
346.933	12.15
347.063	11.15
347.194	18.15
347.325	19.15
347.455	34.15
347.586	30.15
347.716	-3.85
347.847	23.15
347.977	19.15
348.108	26.15
348.238	20.15
348.369	44.15
348.499	50.15
348.63	28.15
348.76	40.15
348.891	53.15
349.021	56.15
349.152	34.15
349.282	54.15
349.413	33.15
349.543	43.15
349.674	28.15
349.804	37.15
349.935	12.15
350.065	26.15
350.196	6.15
350.326	31.15
350.456	4.15
350.587	39.15
350.717	23.15
350.848	15.15
350.978	21.15
351.108	-1.85
351.239	17.15
351.369	14.15
351.499	14.15
351.63	22.15
351.76	4.15
351.89	3.15
352.021	16.15
352.151	-2.85
352.281	16.15
352.412	27.15
352.542	13.15
352.672	-0.85
352.803	18.15
352.933	14.15
353.063	27.15
353.193	6.15
353.324	15.15
353.454	30.15
353.584	23.15
353.714	13.15
353.845	26.15
353.975	10.15
354.105	18.15
354.235	21.15
354.365	8.15
354.496	16.15
354.626	19.15
354.756	8.15
354.886	8.15
355.016	4.15
355.146	37.15
355.277	24.15
355.407	3.15
355.537	28.15
355.667	22.15
355.797	10.15
355.927	8.15
356.057	26.15
356.187	14.15
356.318	10.15
356.448	1.15
356.578	17.15
356.708	31.15
356.838	19.15
356.968	8.15
357.098	26.15
357.228	37.15
357.358	21.15
357.488	21.15
357.618	37.15
357.748	35.15
357.878	14.15
358.008	21.15
358.138	8.15
358.268	26.15
358.398	26.15
358.528	-1.85
358.658	10.15
358.788	16.15
358.918	15.15
359.048	26.15
359.178	39.15
359.308	17.15
359.438	30.15
359.568	39.15
359.698	18.15
359.827	17.15
359.957	26.15
360.087	20.15
360.217	1.15
360.347	17.15
360.477	22.15
360.607	6.15
360.737	37.15
360.866	17.15
360.996	13.15
361.126	20.15
361.256	36.15
361.386	52.15
361.516	38.15
361.645	2.15
361.775	36.15
361.905	9.15
362.035	26.15
362.165	31.15
362.294	40.15
362.424	48.15
362.554	26.15
362.684	8.15
362.813	32.15
362.943	42.15
363.073	63.15
363.203	50.15
363.332	80.15
363.462	71.15
363.592	95.15
363.721	102.15
363.851	138.15
363.981	193.15
364.111	258.15
364.24	324.15
364.37	475.15
364.5	861.15
364.629	1823.15
364.759	3837.15
364.888	6268.15
365.018	9362.15
365.148	14796.15
365.277	12888.15
365.407	4740.15
365.537	3133.15
365.666	4055.15
365.796	1820.15
365.925	795.15
366.055	753.15
366.184	1014.15
366.314	1349.15
366.444	2432.15
366.573	2093.15
366.703	667.15
366.832	204.15
366.962	122.15
367.091	73.15
367.221	77.15
367.35	47.15
367.48	71.15
367.609	28.15
367.739	57.15
367.868	25.15
367.998	38.15
368.127	26.15
368.257	39.15
368.386	41.15
368.516	51.15
368.645	19.15
368.775	42.15
368.904	17.15
369.033	31.15
369.163	17.15
369.292	34.15
369.422	43.15
369.551	43.15
369.68	27.15
369.81	38.15
369.939	18.15
370.069	47.15
370.198	25.15
370.327	5.15
370.457	31.15
370.586	33.15
370.715	21.15
370.845	31.15
370.974	29.15
371.103	47.15
371.233	51.15
371.362	57.15
371.491	22.15
371.621	48.15
371.75	22.15
371.879	20.15
372.008	54.15
372.138	32.15
372.267	52.15
372.396	35.15
372.525	29.15
372.655	14.15
372.784	13.15
372.913	25.15
373.042	12.15
373.172	27.15
373.301	-9.85
373.43	1.15
373.559	5.15
373.688	18.15
373.818	25.15
373.947	12.15
374.076	21.15
374.205	25.15
374.334	10.15
374.463	12.15
374.593	24.15
374.722	10.15
374.851	14.15
374.98	11.15
375.109	17.15
375.238	44.15
375.367	41.15
375.496	-10.85
375.625	-20.85
375.755	3.15
375.884	21.15
376.013	30.15
376.142	17.15
376.271	22.15
376.4	5.15
376.529	18.15
376.658	-6.85
376.787	24.15
376.916	18.15
377.045	14.15
377.174	9.15
377.303	16.15
377.432	36.15
377.561	19.15
377.69	1.15
377.819	35.15
377.948	17.15
378.077	7.15
378.206	0.15
378.335	22.15
378.464	0.15
378.593	1.15
378.722	-4.85
378.851	8.15
378.98	30.15
379.108	-7.85
379.237	2.15
379.366	13.15
379.495	39.15
379.624	16.15
379.753	16.15
379.882	32.15
380.011	2.15
380.14	2.15
380.268	13.15
380.397	10.15
380.526	37.15
380.655	-1.85
380.784	-6.85
380.913	4.15
381.041	-7.85
381.17	-20.85
381.299	-18.85
381.428	23.15
381.557	7.15
381.685	7.15
381.814	22.15
381.943	11.15
382.072	-8.85
382.2	10.15
382.329	1.15
382.458	13.15
382.587	29.15
382.715	35.15
382.844	24.15
382.973	12.15
383.102	2.15
383.23	6.15
383.359	-8.85
383.488	19.15
383.616	7.15
383.745	-4.85
383.874	13.15
384.003	21.15
384.131	-8.85
384.26	2.15
384.389	16.15
384.517	0.15
384.646	-12.85
384.774	5.15
384.903	4.15
385.032	26.15
385.16	18.15
385.289	12.15
385.418	-6.85
385.546	13.15
385.675	3.15
385.803	12.15
385.932	37.15
386.06	3.15
386.189	20.15
386.318	14.15
386.446	18.15
386.575	32.15
386.703	20.15
386.832	17.15
386.96	9.15
387.089	29.15
387.217	8.15
387.346	-3.85
387.474	24.15
387.603	28.15
387.731	28.15
387.86	20.15
387.988	9.15
388.117	12.15
388.245	3.15
388.374	14.15
388.502	38.15
388.631	-5.85
388.759	13.15
388.888	-0.85
389.016	-10.85
389.144	25.15
389.273	10.15
389.401	16.15
389.53	21.15
389.658	28.15
389.786	1.15
389.915	-3.85
390.043	-9.85
390.172	-1.85
390.3	24.15
390.428	29.15
390.557	21.15
390.685	42.15
390.813	38.15
390.942	56.15
391.07	20.15
391.198	1.15
391.327	12.15
391.455	5.15
391.583	25.15
391.712	12.15
391.84	26.15
391.968	30.15
392.096	13.15
392.225	13.15
392.353	21.15
392.481	13.15
392.609	11.15
392.738	16.15
392.866	22.15
392.994	12.15
393.122	21.15
393.251	3.15
393.379	-1.85
393.507	-6.85
393.635	14.15
393.764	16.15
393.892	16.15
394.02	7.15
394.148	7.15
394.276	10.15
394.404	56.15
394.533	18.15
394.661	8.15
394.789	20.15
394.917	21.15
395.045	16.15
395.173	8.15
395.302	15.15
395.43	19.15
395.558	41.15
395.686	41.15
395.814	42.15
395.942	6.15
396.07	26.15
396.198	45.15
396.326	26.15
396.454	35.15
396.582	22.15
396.711	7.15
396.839	24.15
396.967	36.15
397.095	25.15
397.223	26.15
397.351	50.15
397.479	37.15
397.607	12.15
397.735	34.15
397.863	49.15
397.991	41.15
398.119	26.15
398.247	37.15
398.375	23.15
398.503	54.15
398.631	46.15
398.759	55.15
398.887	29.15
399.015	21.15
399.143	48.15
399.271	54.15
399.399	51.15
399.526	56.15
399.654	63.15
399.782	56.15
399.91	89.15
400.038	90.15
400.166	76.15
400.294	77.15
400.422	84.15
400.55	105.15
400.678	80.15
400.805	107.15
400.933	109.15
401.061	110.15
401.189	104.15
401.317	144.15
401.445	119.15
401.573	66.15
401.7	46.15
401.828	43.15
401.956	34.15
402.084	38.15
402.212	33.15
402.34	7.15
402.467	42.15
402.595	47.15
402.723	44.15
402.851	50.15
402.978	46.15
403.106	70.15
403.234	85.15
403.362	109.15
403.489	119.15
403.617	154.15
403.745	206.15
403.873	277.15
404	552.15
404.128	1450.15
404.256	3917.15
404.384	5102.15
404.511	5420.15
404.639	7194.15
404.767	11446.15
404.894	14637.15
405.022	4909.15
405.15	1293.15
405.277	414.15
405.405	217.15
405.533	108.15
405.66	92.15
405.788	49.15
405.916	49.15
406.043	34.15
406.171	50.15
406.299	50.15
406.426	43.15
406.554	27.15
406.681	74.15
406.809	43.15
406.937	52.15
407.064	68.15
407.192	128.15
407.319	292.15
407.447	503.15
407.574	539.15
407.702	616.15
407.83	833.15
407.957	1568.15
408.085	925.15
408.212	268.15
408.34	88.15
408.467	56.15
408.595	46.15
408.722	61.15
408.85	44.15
408.977	25.15
409.105	21.15
409.232	39.15
409.36	35.15
409.487	17.15
409.615	24.15
409.742	24.15
409.87	23.15
409.997	33.15
410.125	39.15
410.252	24.15
410.379	5.15
410.507	31.15
410.634	11.15
410.762	25.15
410.889	27.15
411.017	27.15
411.144	22.15
411.271	22.15
411.399	10.15
411.526	18.15
411.653	25.15
411.781	28.15
411.908	30.15
412.036	12.15
412.163	23.15
412.29	26.15
412.418	42.15
412.545	27.15
412.672	6.15
412.8	51.15
412.927	26.15
413.054	45.15
413.182	23.15
413.309	25.15
413.436	9.15
413.564	18.15
413.691	-7.85
413.818	35.15
413.945	4.15
414.073	19.15
414.2	12.15
414.327	26.15
414.454	39.15
414.582	13.15
414.709	10.15
414.836	21.15
414.963	26.15
415.091	28.15
415.218	28.15
415.345	21.15
415.472	1.15
415.6	22.15
415.727	20.15
415.854	27.15
415.981	18.15
416.108	1.15
416.236	19.15
416.363	12.15
416.49	4.15
416.617	21.15
416.744	35.15
416.871	37.15
416.998	23.15
417.126	23.15
417.253	12.15
417.38	21.15
417.507	25.15
417.634	35.15
417.761	26.15
417.888	18.15
