Data from LowRes_mercury_15_20_11_07_2024_HR4C61881__41__15-23-36-371.txt Node

Date: Thu Nov 07 15:23:36 EST 2024
User: crc00042
Spectrometer: HR4C6188
Trigger mode: 4
Integration Time (sec): 1.000000E-1
Scans to average: 1
Electric dark correction enabled: true
Nonlinearity correction enabled: false
Boxcar width: 0
XAxis mode: Wavelengths
Number of Pixels in Spectrum: 3648
>>>>>Begin Spectral Data<<<<<
245.66	-48.69
245.797	-48.69
245.934	-48.69
246.071	-60.69
246.208	15.31
246.344	-0.69
246.481	-16.69
246.618	-13.69
246.755	11.31
246.892	0.31
247.029	-21.69
247.165	-13.69
247.302	33.31
247.439	-8.69
247.576	22.31
247.713	-4.69
247.849	10.31
247.986	2.31
248.123	3.31
248.26	5.31
248.396	25.31
248.533	7.31
248.67	4.31
248.806	19.31
248.943	-6.69
249.08	-2.69
249.216	18.31
249.353	-0.69
249.49	20.31
249.626	14.31
249.763	-2.69
249.9	-8.69
250.036	24.31
250.173	7.31
250.309	0.31
250.446	10.31
250.582	9.31
250.719	11.31
250.856	-5.69
250.992	15.31
251.129	1.31
251.265	13.31
251.402	8.31
251.538	-1.69
251.675	7.31
251.811	36.31
251.948	20.31
252.084	8.31
252.221	-3.69
252.357	-6.69
252.493	38.31
252.63	15.31
252.766	20.31
252.903	7.31
253.039	4.31
253.175	2.31
253.312	8.31
253.448	-5.69
253.585	-14.69
253.721	-2.69
253.857	-5.69
253.994	12.31
254.13	-3.69
254.266	10.31
254.403	14.31
254.539	13.31
254.675	24.31
254.811	22.31
254.948	7.31
255.084	2.31
255.22	-7.69
255.356	2.31
255.493	18.31
255.629	4.31
255.765	10.31
255.901	22.31
256.037	18.31
256.174	19.31
256.31	15.31
256.446	14.31
256.582	0.31
256.718	13.31
256.854	44.31
256.991	30.31
257.127	31.31
257.263	5.31
257.399	-0.69
257.535	0.31
257.671	-11.69
257.807	-4.69
257.943	0.31
258.079	-22.69
258.215	0.31
258.351	27.31
258.487	13.31
258.623	34.31
258.759	12.31
258.895	6.31
259.031	8.31
259.167	-9.69
259.303	40.31
259.439	18.31
259.575	5.31
259.711	13.31
259.847	-0.69
259.983	15.31
260.119	-5.69
260.255	-3.69
260.391	0.31
260.527	-5.69
260.663	9.31
260.799	20.31
260.934	12.31
261.07	-3.69
261.206	-3.69
261.342	-11.69
261.478	21.31
261.614	31.31
261.749	30.31
261.885	5.31
262.021	-2.69
262.157	1.31
262.293	-12.69
262.428	0.31
262.564	-3.69
262.7	22.31
262.836	-0.69
262.971	16.31
263.107	-5.69
263.243	29.31
263.378	6.31
263.514	-0.69
263.65	5.31
263.785	4.31
263.921	6.31
264.057	-0.69
264.192	20.31
264.328	18.31
264.464	-0.69
264.599	11.31
264.735	30.31
264.871	11.31
265.006	11.31
265.142	14.31
265.277	7.31
265.413	11.31
265.548	8.31
265.684	17.31
265.819	-4.69
265.955	1.31
266.091	5.31
266.226	6.31
266.362	4.31
266.497	18.31
266.633	11.31
266.768	3.31
266.903	26.31
267.039	22.31
267.174	18.31
267.31	2.31
267.445	-10.69
267.581	-0.69
267.716	20.31
267.851	-1.69
267.987	17.31
268.122	9.31
268.258	-2.69
268.393	6.31
268.528	24.31
268.664	-7.69
268.799	-11.69
268.934	-16.69
269.07	-8.69
269.205	18.31
269.34	13.31
269.476	5.31
269.611	4.31
269.746	23.31
269.881	21.31
270.017	30.31
270.152	-6.69
270.287	8.31
270.422	14.31
270.558	4.31
270.693	10.31
270.828	24.31
270.963	-1.69
271.098	-11.69
271.234	1.31
271.369	16.31
271.504	0.31
271.639	-7.69
271.774	14.31
271.909	1.31
272.045	-22.69
272.18	1.31
272.315	-0.69
272.45	9.31
272.585	2.31
272.72	16.31
272.855	16.31
272.99	31.31
273.125	5.31
273.26	-4.69
273.395	-2.69
273.53	5.31
273.665	21.31
273.8	4.31
273.935	23.31
274.07	10.31
274.205	7.31
274.34	12.31
274.475	12.31
274.61	26.31
274.745	16.31
274.88	17.31
275.015	2.31
275.15	21.31
275.285	16.31
275.42	15.31
275.555	12.31
275.69	19.31
275.825	7.31
275.959	14.31
276.094	0.31
276.229	-5.69
276.364	-12.69
276.499	1.31
276.634	14.31
276.768	-4.69
276.903	16.31
277.038	28.31
277.173	8.31
277.308	18.31
277.442	4.31
277.577	7.31
277.712	0.31
277.847	-6.69
277.981	15.31
278.116	2.31
278.251	2.31
278.386	19.31
278.52	13.31
278.655	0.31
278.79	22.31
278.924	22.31
279.059	19.31
279.194	-1.69
279.328	31.31
279.463	2.31
279.598	19.31
279.732	-0.69
279.867	18.31
280.001	16.31
280.136	3.31
280.271	19.31
280.405	12.31
280.54	1.31
280.674	-12.69
280.809	13.31
280.943	-6.69
281.078	7.31
281.213	29.31
281.347	24.31
281.482	20.31
281.616	-1.69
281.751	5.31
281.885	-6.69
282.02	4.31
282.154	22.31
282.288	0.31
282.423	-14.69
282.557	-13.69
282.692	12.31
282.826	11.31
282.961	30.31
283.095	15.31
283.229	-1.69
283.364	2.31
283.498	-1.69
283.633	-0.69
283.767	14.31
283.901	1.31
284.036	15.31
284.17	12.31
284.304	14.31
284.439	18.31
284.573	6.31
284.707	43.31
284.842	15.31
284.976	-10.69
285.11	-1.69
285.244	10.31
285.379	50.31
285.513	3.31
285.647	19.31
285.781	25.31
285.916	19.31
286.05	-0.69
286.184	14.31
286.318	5.31
286.453	4.31
286.587	5.31
286.721	-3.69
286.855	3.31
286.989	10.31
287.123	-0.69
287.258	3.31
287.392	13.31
287.526	8.31
287.66	20.31
287.794	13.31
287.928	-10.69
288.062	4.31
288.196	6.31
288.33	20.31
288.464	36.31
288.598	12.31
288.733	21.31
288.867	5.31
289.001	30.31
289.135	8.31
289.269	-10.69
289.403	-7.69
289.537	4.31
289.671	19.31
289.805	-8.69
289.939	8.31
290.073	8.31
290.207	17.31
290.34	22.31
290.474	6.31
290.608	19.31
290.742	5.31
290.876	0.31
291.01	-22.69
291.144	32.31
291.278	-3.69
291.412	21.31
291.546	7.31
291.679	12.31
291.813	-9.69
291.947	3.31
292.081	4.31
292.215	-1.69
292.349	27.31
292.482	15.31
292.616	3.31
292.75	0.31
292.884	2.31
293.018	14.31
293.151	-7.69
293.285	10.31
293.419	-7.69
293.553	10.31
293.686	-3.69
293.82	18.31
293.954	27.31
294.088	32.31
294.221	0.31
294.355	14.31
294.489	15.31
294.622	14.31
294.756	21.31
294.89	2.31
295.023	10.31
295.157	20.31
295.291	32.31
295.424	17.31
295.558	15.31
295.691	12.31
295.825	-7.69
295.959	21.31
296.092	16.31
296.226	11.31
296.359	11.31
296.493	7.31
296.627	-0.69
296.76	1.31
296.894	14.31
297.027	-3.69
297.161	-14.69
297.294	-12.69
297.428	-14.69
297.561	23.31
297.695	5.31
297.828	19.31
297.962	6.31
298.095	7.31
298.229	3.31
298.362	-11.69
298.495	-5.69
298.629	-6.69
298.762	5.31
298.896	21.31
299.029	4.31
299.162	16.31
299.296	24.31
299.429	-7.69
299.563	1.31
299.696	4.31
299.829	14.31
299.963	23.31
300.096	13.31
300.229	3.31
300.363	6.31
300.496	20.31
300.629	-0.69
300.763	-10.69
300.896	-7.69
301.029	0.31
301.162	12.31
301.296	-6.69
301.429	3.31
301.562	-15.69
301.695	11.31
301.829	-8.69
301.962	18.31
302.095	3.31
302.228	0.31
302.362	8.31
302.495	5.31
302.628	11.31
302.761	-8.69
302.894	12.31
303.027	20.31
303.161	-12.69
303.294	-6.69
303.427	27.31
303.56	15.31
303.693	12.31
303.826	-7.69
303.959	-3.69
304.092	-6.69
304.225	26.31
304.359	20.31
304.492	16.31
304.625	3.31
304.758	18.31
304.891	3.31
305.024	-0.69
305.157	12.31
305.29	-6.69
305.423	13.31
305.556	9.31
305.689	26.31
305.822	11.31
305.955	-6.69
306.088	-6.69
306.221	0.31
306.354	3.31
306.487	15.31
306.62	1.31
306.752	6.31
306.885	11.31
307.018	14.31
307.151	17.31
307.284	-3.69
307.417	4.31
307.55	25.31
307.683	-11.69
307.816	33.31
307.948	25.31
308.081	28.31
308.214	9.31
308.347	9.31
308.48	-7.69
308.613	5.31
308.745	9.31
308.878	1.31
309.011	12.31
309.144	24.31
309.277	16.31
309.409	6.31
309.542	16.31
309.675	19.31
309.808	0.31
309.94	17.31
310.073	-20.69
310.206	-9.69
310.339	-10.69
310.471	3.31
310.604	12.31
310.737	12.31
310.869	13.31
311.002	14.31
311.135	15.31
311.267	-7.69
311.4	6.31
311.533	32.31
311.665	22.31
311.798	20.31
311.93	16.31
312.063	30.31
312.196	59.31
312.328	94.31
312.461	50.31
312.593	33.31
312.726	48.31
312.859	100.31
312.991	173.31
313.124	56.31
313.256	37.31
313.389	14.31
313.521	5.31
313.654	-2.69
313.786	-7.69
313.919	-2.69
314.051	-0.69
314.184	8.31
314.316	6.31
314.449	-11.69
314.581	10.31
314.714	1.31
314.846	15.31
314.978	-7.69
315.111	-3.69
315.243	2.31
315.376	17.31
315.508	20.31
315.641	20.31
315.773	27.31
315.905	5.31
316.038	11.31
316.17	-8.69
316.302	13.31
316.435	9.31
316.567	8.31
316.699	32.31
316.832	-4.69
316.964	-4.69
317.096	13.31
317.229	21.31
317.361	-0.69
317.493	20.31
317.625	22.31
317.758	10.31
317.89	27.31
318.022	8.31
318.155	-6.69
318.287	5.31
318.419	13.31
318.551	2.31
318.683	23.31
318.816	7.31
318.948	3.31
319.08	-4.69
319.212	5.31
319.344	5.31
319.477	14.31
319.609	36.31
319.741	15.31
319.873	-3.69
320.005	21.31
320.137	-16.69
320.269	1.31
320.401	9.31
320.534	16.31
320.666	3.31
320.798	-7.69
320.93	-6.69
321.062	11.31
321.194	-1.69
321.326	6.31
321.458	21.31
321.59	-7.69
321.722	-5.69
321.854	10.31
321.986	4.31
322.118	18.31
322.25	-5.69
322.382	12.31
322.514	6.31
322.646	-6.69
322.778	14.31
322.91	4.31
323.042	16.31
323.174	23.31
323.306	15.31
323.438	-11.69
323.57	29.31
323.702	17.31
323.834	14.31
323.966	-7.69
324.097	20.31
324.229	23.31
324.361	20.31
324.493	25.31
324.625	6.31
324.757	8.31
324.889	6.31
325.021	13.31
325.152	18.31
325.284	19.31
325.416	-4.69
325.548	28.31
325.68	-1.69
325.811	15.31
325.943	12.31
326.075	-0.69
326.207	6.31
326.339	10.31
326.47	27.31
326.602	32.31
326.734	27.31
326.866	25.31
326.997	-4.69
327.129	-0.69
327.261	3.31
327.392	8.31
327.524	13.31
327.656	5.31
327.787	19.31
327.919	9.31
328.051	0.31
328.182	27.31
328.314	39.31
328.446	12.31
328.577	28.31
328.709	15.31
328.841	-19.69
328.972	7.31
329.104	19.31
329.235	6.31
329.367	16.31
329.499	7.31
329.63	29.31
329.762	17.31
329.893	16.31
330.025	-7.69
330.156	2.31
330.288	22.31
330.419	26.31
330.551	11.31
330.683	15.31
330.814	3.31
330.946	7.31
331.077	-2.69
331.208	7.31
331.34	5.31
331.471	-1.69
331.603	17.31
331.734	4.31
331.866	1.31
331.997	15.31
332.129	-3.69
332.26	1.31
332.392	27.31
332.523	11.31
332.654	18.31
332.786	23.31
332.917	4.31
333.048	27.31
333.18	17.31
333.311	8.31
333.443	11.31
333.574	3.31
333.705	40.31
333.837	33.31
333.968	110.31
334.099	238.31
334.231	225.31
334.362	50.31
334.493	28.31
334.624	41.31
334.756	17.31
334.887	6.31
335.018	29.31
335.15	25.31
335.281	17.31
335.412	25.31
335.543	22.31
335.675	26.31
335.806	24.31
335.937	14.31
336.068	10.31
336.199	47.31
336.331	2.31
336.462	16.31
336.593	22.31
336.724	23.31
336.855	22.31
336.986	40.31
337.118	29.31
337.249	16.31
337.38	15.31
337.511	1.31
337.642	25.31
337.773	29.31
337.904	8.31
338.035	30.31
338.166	4.31
338.298	-5.69
338.429	12.31
338.56	18.31
338.691	27.31
338.822	20.31
338.953	29.31
339.084	26.31
339.215	30.31
339.346	19.31
339.477	14.31
339.608	19.31
339.739	13.31
339.87	13.31
340.001	19.31
340.132	44.31
340.263	6.31
340.394	23.31
340.525	19.31
340.656	10.31
340.787	6.31
340.918	37.31
341.049	34.31
341.179	4.31
341.31	6.31
341.441	43.31
341.572	27.31
341.703	31.31
341.834	10.31
341.965	21.31
342.096	15.31
342.227	23.31
342.357	-11.69
342.488	12.31
342.619	32.31
342.75	29.31
342.881	-0.69
343.012	48.31
343.142	28.31
343.273	26.31
343.404	37.31
343.535	61.31
343.666	33.31
343.796	46.31
343.927	47.31
344.058	36.31
344.189	38.31
344.319	56.31
344.45	36.31
344.581	34.31
344.712	17.31
344.842	24.31
344.973	21.31
345.104	33.31
345.234	26.31
345.365	17.31
345.496	28.31
345.626	38.31
345.757	26.31
345.888	31.31
346.018	35.31
346.149	26.31
346.28	39.31
346.41	16.31
346.541	31.31
346.672	23.31
346.802	36.31
346.933	54.31
347.063	49.31
347.194	26.31
347.325	30.31
347.455	37.31
347.586	32.31
347.716	31.31
347.847	50.31
347.977	59.31
348.108	50.31
348.238	62.31
348.369	39.31
348.499	65.31
348.63	33.31
348.76	51.31
348.891	61.31
349.021	62.31
349.152	64.31
349.282	52.31
349.413	45.31
349.543	54.31
349.674	45.31
349.804	50.31
349.935	26.31
350.065	19.31
350.196	23.31
350.326	32.31
350.456	21.31
350.587	49.31
350.717	26.31
350.848	46.31
350.978	22.31
351.108	15.31
351.239	35.31
351.369	24.31
351.499	34.31
351.63	30.31
351.76	27.31
351.89	11.31
352.021	35.31
352.151	32.31
352.281	29.31
352.412	38.31
352.542	32.31
352.672	22.31
352.803	14.31
352.933	37.31
353.063	28.31
353.193	27.31
353.324	21.31
353.454	47.31
353.584	37.31
353.714	28.31
353.845	27.31
353.975	10.31
354.105	9.31
354.235	19.31
354.365	30.31
354.496	27.31
354.626	37.31
354.756	25.31
354.886	44.31
355.016	31.31
355.146	36.31
355.277	38.31
355.407	28.31
355.537	34.31
355.667	45.31
355.797	33.31
355.927	7.31
356.057	46.31
356.187	27.31
356.318	8.31
356.448	39.31
356.578	32.31
356.708	33.31
356.838	37.31
356.968	40.31
357.098	41.31
357.228	41.31
357.358	24.31
357.488	36.31
357.618	48.31
357.748	48.31
357.878	28.31
358.008	15.31
358.138	19.31
358.268	30.31
358.398	49.31
358.528	11.31
358.658	36.31
358.788	38.31
358.918	46.31
359.048	35.31
359.178	49.31
359.308	38.31
359.438	52.31
359.568	43.31
359.698	45.31
359.827	40.31
359.957	45.31
360.087	33.31
360.217	26.31
360.347	48.31
360.477	44.31
360.607	33.31
360.737	42.31
360.866	31.31
360.996	12.31
361.126	17.31
361.256	47.31
361.386	39.31
361.516	46.31
361.645	8.31
361.775	42.31
361.905	24.31
362.035	55.31
362.165	43.31
362.294	36.31
362.424	46.31
362.554	51.31
362.684	36.31
362.813	51.31
362.943	70.31
363.073	64.31
363.203	53.31
363.332	86.31
363.462	99.31
363.592	105.31
363.721	120.31
363.851	175.31
363.981	209.31
364.111	251.31
364.24	322.31
364.37	504.31
364.5	840.31
364.629	1815.31
364.759	3880.31
364.888	6234.31
365.018	9368.31
365.148	14803.31
365.277	13036.31
365.407	4756.31
365.537	3125.31
365.666	4080.31
365.796	1839.31
365.925	798.31
366.055	780.31
366.184	1036.31
366.314	1374.31
366.444	2490.31
366.573	2098.31
366.703	663.31
366.832	204.31
366.962	112.31
367.091	104.31
367.221	96.31
367.35	55.31
367.48	82.31
367.609	60.31
367.739	59.31
367.868	33.31
367.998	45.31
368.127	66.31
368.257	48.31
368.386	58.31
368.516	53.31
368.645	51.31
368.775	61.31
368.904	44.31
369.033	34.31
369.163	53.31
369.292	56.31
369.422	45.31
369.551	46.31
369.68	50.31
369.81	49.31
369.939	37.31
370.069	63.31
370.198	61.31
370.327	24.31
370.457	43.31
370.586	53.31
370.715	37.31
370.845	41.31
370.974	60.31
371.103	55.31
371.233	55.31
371.362	47.31
371.491	47.31
371.621	52.31
371.75	47.31
371.879	41.31
372.008	44.31
372.138	58.31
372.267	69.31
372.396	70.31
372.525	38.31
372.655	30.31
372.784	30.31
372.913	37.31
373.042	46.31
373.172	55.31
373.301	5.31
373.43	15.31
373.559	24.31
373.688	36.31
373.818	47.31
373.947	37.31
374.076	8.31
374.205	43.31
374.334	30.31
374.463	5.31
374.593	16.31
374.722	36.31
374.851	32.31
374.98	10.31
375.109	26.31
375.238	24.31
375.367	39.31
375.496	19.31
375.625	19.31
375.755	32.31
375.884	42.31
376.013	37.31
376.142	18.31
376.271	20.31
376.4	31.31
376.529	11.31
376.658	31.31
376.787	44.31
376.916	39.31
377.045	35.31
377.174	33.31
377.303	21.31
377.432	38.31
377.561	33.31
377.69	33.31
377.819	37.31
377.948	41.31
378.077	33.31
378.206	22.31
378.335	31.31
378.464	19.31
378.593	46.31
378.722	15.31
378.851	12.31
378.98	28.31
379.108	21.31
379.237	20.31
379.366	16.31
379.495	39.31
379.624	13.31
379.753	8.31
379.882	15.31
380.011	11.31
380.14	7.31
380.268	25.31
380.397	15.31
380.526	45.31
380.655	8.31
380.784	9.31
380.913	30.31
381.041	20.31
381.17	7.31
381.299	20.31
381.428	38.31
381.557	26.31
381.685	10.31
381.814	35.31
381.943	32.31
382.072	14.31
382.2	11.31
382.329	19.31
382.458	13.31
382.587	26.31
382.715	39.31
382.844	20.31
382.973	30.31
383.102	31.31
383.23	17.31
383.359	8.31
383.488	26.31
383.616	3.31
383.745	25.31
383.874	26.31
384.003	31.31
384.131	-6.69
384.26	19.31
384.389	8.31
384.517	13.31
384.646	11.31
384.774	18.31
384.903	34.31
385.032	27.31
385.16	17.31
385.289	26.31
385.418	14.31
385.546	24.31
385.675	29.31
385.803	18.31
385.932	8.31
386.06	9.31
386.189	22.31
386.318	15.31
386.446	26.31
386.575	32.31
386.703	49.31
386.832	20.31
386.96	17.31
387.089	39.31
387.217	14.31
387.346	15.31
387.474	24.31
387.603	12.31
387.731	40.31
387.86	47.31
387.988	37.31
388.117	35.31
388.245	25.31
388.374	17.31
388.502	36.31
388.631	11.31
388.759	15.31
388.888	21.31
389.016	27.31
389.144	17.31
389.273	34.31
389.401	8.31
389.53	-11.69
389.658	41.31
389.786	10.31
389.915	32.31
390.043	8.31
390.172	13.31
390.3	51.31
390.428	54.31
390.557	26.31
390.685	53.31
390.813	47.31
390.942	37.31
391.07	37.31
391.198	35.31
391.327	20.31
391.455	0.31
391.583	36.31
391.712	31.31
391.84	23.31
391.968	20.31
392.096	15.31
392.225	9.31
392.353	39.31
392.481	13.31
392.609	46.31
392.738	34.31
392.866	33.31
392.994	16.31
393.122	46.31
393.251	37.31
393.379	28.31
393.507	5.31
393.635	44.31
393.764	31.31
393.892	32.31
394.02	16.31
394.148	23.31
394.276	38.31
394.404	56.31
394.533	30.31
394.661	25.31
394.789	59.31
394.917	50.31
395.045	25.31
395.173	31.31
395.302	28.31
395.43	38.31
395.558	31.31
395.686	45.31
395.814	43.31
395.942	20.31
396.07	35.31
396.198	42.31
396.326	52.31
396.454	48.31
396.582	41.31
396.711	33.31
396.839	34.31
396.967	52.31
397.095	28.31
397.223	41.31
397.351	53.31
397.479	43.31
397.607	42.31
397.735	50.31
397.863	48.31
397.991	42.31
398.119	41.31
398.247	50.31
398.375	47.31
398.503	49.31
398.631	53.31
398.759	70.31
398.887	61.31
399.015	47.31
399.143	62.31
399.271	82.31
399.399	84.31
399.526	82.31
399.654	94.31
399.782	63.31
399.91	102.31
400.038	102.31
400.166	97.31
400.294	95.31
400.422	90.31
400.55	131.31
400.678	117.31
400.805	121.31
400.933	120.31
401.061	111.31
401.189	127.31
401.317	151.31
401.445	117.31
401.573	84.31
401.7	51.31
401.828	54.31
401.956	57.31
402.084	44.31
402.212	43.31
402.34	42.31
402.467	41.31
402.595	53.31
402.723	59.31
402.851	94.31
402.978	78.31
403.106	95.31
403.234	104.31
403.362	125.31
403.489	141.31
403.617	161.31
403.745	191.31
403.873	294.31
404	567.31
404.128	1441.31
404.256	3898.31
404.384	5138.31
404.511	5424.31
404.639	7134.31
404.767	11437.31
404.894	14619.31
405.022	4923.31
405.15	1297.31
405.277	420.31
405.405	228.31
405.533	124.31
405.66	99.31
405.788	67.31
405.916	86.31
406.043	52.31
406.171	76.31
406.299	56.31
406.426	77.31
406.554	63.31
406.681	73.31
406.809	55.31
406.937	79.31
407.064	59.31
407.192	117.31
407.319	296.31
407.447	514.31
407.574	564.31
407.702	633.31
407.83	837.31
407.957	1590.31
408.085	945.31
408.212	283.31
408.34	115.31
408.467	74.31
408.595	53.31
408.722	41.31
408.85	49.31
408.977	31.31
409.105	36.31
409.232	55.31
409.36	39.31
409.487	41.31
409.615	31.31
409.742	34.31
409.87	33.31
409.997	53.31
410.125	35.31
410.252	38.31
410.379	46.31
410.507	37.31
410.634	30.31
410.762	31.31
410.889	46.31
411.017	36.31
411.144	50.31
411.271	48.31
411.399	35.31
411.526	38.31
411.653	35.31
411.781	42.31
411.908	42.31
412.036	14.31
412.163	54.31
412.29	38.31
412.418	33.31
412.545	27.31
412.672	20.31
412.8	51.31
412.927	36.31
413.054	34.31
413.182	32.31
413.309	30.31
413.436	22.31
413.564	27.31
413.691	35.31
413.818	60.31
413.945	19.31
414.073	34.31
414.2	58.31
414.327	37.31
414.454	36.31
414.582	36.31
414.709	37.31
414.836	32.31
414.963	30.31
415.091	39.31
415.218	35.31
415.345	43.31
415.472	36.31
415.6	34.31
415.727	47.31
415.854	18.31
415.981	36.31
416.108	39.31
416.236	24.31
416.363	19.31
416.49	27.31
416.617	35.31
416.744	56.31
416.871	57.31
416.998	30.31
417.126	34.31
417.253	30.31
417.38	24.31
417.507	17.31
417.634	38.31
417.761	45.31
417.888	31.31
418.015	31.31
418.143	54.31
418.27	64.31
418.397	50.31
418.524	18.31
418.651	27.31
418.778	43.31
418.905	51.31
419.032	56.31
