Data from LowRes_mercury_15_20_11_07_2024_HR4C61881__71__15-23-39-370.txt Node

Date: Thu Nov 07 15:23:39 EST 2024
User: crc00042
Spectrometer: HR4C6188
Trigger mode: 4
Integration Time (sec): 1.000000E-1
Scans to average: 1
Electric dark correction enabled: true
Nonlinearity correction enabled: false
Boxcar width: 0
XAxis mode: Wavelengths
Number of Pixels in Spectrum: 3648
>>>>>Begin Spectral Data<<<<<
245.66	-72.46
245.797	-72.46
245.934	-72.46
246.071	-76.46
246.208	34.54
246.344	1.54
246.481	-9.46
246.618	-17.46
246.755	16.54
246.892	3.54
247.029	-3.46
247.165	3.54
247.302	11.54
247.439	0.54
247.576	15.54
247.713	-24.46
247.849	16.54
247.986	-14.46
248.123	7.54
248.26	-3.46
248.396	-0.46
248.533	6.54
248.67	13.54
248.806	17.54
248.943	-10.46
249.08	-9.46
249.216	23.54
249.353	-11.46
249.49	-3.46
249.626	0.54
249.763	11.54
249.9	9.54
250.036	0.54
250.173	14.54
250.309	0.54
250.446	9.54
250.582	-6.46
250.719	1.54
250.856	-1.46
250.992	-15.46
251.129	8.54
251.265	-13.46
251.402	19.54
251.538	-2.46
251.675	-3.46
251.811	27.54
251.948	23.54
252.084	14.54
252.221	3.54
252.357	-9.46
252.493	33.54
252.63	11.54
252.766	31.54
252.903	-6.46
253.039	14.54
253.175	-2.46
253.312	-2.46
253.448	-16.46
253.585	-14.46
253.721	-2.46
253.857	-3.46
253.994	4.54
254.13	5.54
254.266	-2.46
254.403	-8.46
254.539	-5.46
254.675	3.54
254.811	11.54
254.948	10.54
255.084	2.54
255.22	1.54
255.356	2.54
255.493	9.54
255.629	8.54
255.765	-2.46
255.901	17.54
256.037	1.54
256.174	16.54
256.31	12.54
256.446	3.54
256.582	-0.46
256.718	11.54
256.854	18.54
256.991	22.54
257.127	13.54
257.263	0.54
257.399	9.54
257.535	-2.46
257.671	-3.46
257.807	2.54
257.943	0.54
258.079	-14.46
258.215	1.54
258.351	20.54
258.487	3.54
258.623	8.54
258.759	1.54
258.895	2.54
259.031	-10.46
259.167	-18.46
259.303	25.54
259.439	10.54
259.575	19.54
259.711	14.54
259.847	-17.46
259.983	-5.46
260.119	-20.46
260.255	-27.46
260.391	-4.46
260.527	-0.46
260.663	16.54
260.799	12.54
260.934	15.54
261.07	12.54
261.206	-2.46
261.342	-3.46
261.478	21.54
261.614	13.54
261.749	4.54
261.885	-8.46
262.021	6.54
262.157	29.54
262.293	-3.46
262.428	0.54
262.564	-5.46
262.7	30.54
262.836	16.54
262.971	16.54
263.107	10.54
263.243	18.54
263.378	4.54
263.514	-7.46
263.65	10.54
263.785	5.54
263.921	16.54
264.057	-12.46
264.192	14.54
264.328	10.54
264.464	10.54
264.599	14.54
264.735	22.54
264.871	-5.46
265.006	1.54
265.142	0.54
265.277	7.54
265.413	13.54
265.548	27.54
265.684	21.54
265.819	-3.46
265.955	-1.46
266.091	-4.46
266.226	9.54
266.362	2.54
266.497	15.54
266.633	-7.46
266.768	0.54
266.903	17.54
267.039	-5.46
267.174	14.54
267.31	-10.46
267.445	5.54
267.581	2.54
267.716	14.54
267.851	9.54
267.987	10.54
268.122	1.54
268.258	-0.46
268.393	-9.46
268.528	14.54
268.664	-4.46
268.799	-7.46
268.934	-2.46
269.07	-8.46
269.205	12.54
269.34	35.54
269.476	13.54
269.611	1.54
269.746	5.54
269.881	15.54
270.017	27.54
270.152	14.54
270.287	11.54
270.422	25.54
270.558	-0.46
270.693	15.54
270.828	1.54
270.963	4.54
271.098	13.54
271.234	-8.46
271.369	2.54
271.504	-2.46
271.639	-2.46
271.774	15.54
271.909	0.54
272.045	-4.46
272.18	8.54
272.315	8.54
272.45	3.54
272.585	-18.46
272.72	-9.46
272.855	-5.46
272.99	14.54
273.125	-7.46
273.26	-8.46
273.395	0.54
273.53	1.54
273.665	2.54
273.8	5.54
273.935	26.54
274.07	2.54
274.205	13.54
274.34	-13.46
274.475	5.54
274.61	24.54
274.745	5.54
274.88	23.54
275.015	-0.46
275.15	-4.46
275.285	5.54
275.42	18.54
275.555	13.54
275.69	27.54
275.825	11.54
275.959	10.54
276.094	-3.46
276.229	-6.46
276.364	5.54
276.499	11.54
276.634	-0.46
276.768	6.54
276.903	3.54
277.038	22.54
277.173	8.54
277.308	-3.46
277.442	-1.46
277.577	-7.46
277.712	8.54
277.847	6.54
277.981	15.54
278.116	-10.46
278.251	8.54
278.386	2.54
278.52	-8.46
278.655	6.54
278.79	22.54
278.924	-4.46
279.059	12.54
279.194	-9.46
279.328	43.54
279.463	9.54
279.598	24.54
279.732	21.54
279.867	15.54
280.001	16.54
280.136	0.54
280.271	0.54
280.405	-2.46
280.54	0.54
280.674	-9.46
280.809	8.54
280.943	14.54
281.078	-0.46
281.213	25.54
281.347	5.54
281.482	13.54
281.616	7.54
281.751	5.54
281.885	-8.46
282.02	-2.46
282.154	3.54
282.288	-3.46
282.423	-7.46
282.557	-17.46
282.692	6.54
282.826	5.54
282.961	14.54
283.095	9.54
283.229	-8.46
283.364	-12.46
283.498	-6.46
283.633	7.54
283.767	-11.46
283.901	5.54
284.036	7.54
284.17	-11.46
284.304	2.54
284.439	18.54
284.573	-8.46
284.707	-9.46
284.842	15.54
284.976	-7.46
285.11	-1.46
285.244	19.54
285.379	47.54
285.513	-16.46
285.647	14.54
285.781	8.54
285.916	23.54
286.05	-3.46
286.184	11.54
286.318	22.54
286.453	-10.46
286.587	-8.46
286.721	0.54
286.855	12.54
286.989	5.54
287.123	2.54
287.258	-16.46
287.392	-5.46
287.526	13.54
287.66	8.54
287.794	16.54
287.928	2.54
288.062	21.54
288.196	19.54
288.33	2.54
288.464	7.54
288.598	2.54
288.733	7.54
288.867	24.54
289.001	7.54
289.135	13.54
289.269	9.54
289.403	-4.46
289.537	2.54
289.671	0.54
289.805	-3.46
289.939	9.54
290.073	-14.46
290.207	21.54
290.34	2.54
290.474	25.54
290.608	20.54
290.742	0.54
290.876	-3.46
291.01	-3.46
291.144	26.54
291.278	8.54
291.412	-2.46
291.546	-6.46
291.679	-1.46
291.813	12.54
291.947	3.54
292.081	-9.46
292.215	-0.46
292.349	19.54
292.482	8.54
292.616	6.54
292.75	11.54
292.884	7.54
293.018	-3.46
293.151	-10.46
293.285	1.54
293.419	11.54
293.553	11.54
293.686	6.54
293.82	4.54
293.954	14.54
294.088	9.54
294.221	3.54
294.355	-9.46
294.489	14.54
294.622	-4.46
294.756	-7.46
294.89	5.54
295.023	7.54
295.157	13.54
295.291	16.54
295.424	9.54
295.558	22.54
295.691	11.54
295.825	-6.46
295.959	-0.46
296.092	-15.46
296.226	3.54
296.359	11.54
296.493	18.54
296.627	6.54
296.76	9.54
296.894	-10.46
297.027	-6.46
297.161	1.54
297.294	3.54
297.428	5.54
297.561	11.54
297.695	-1.46
297.828	10.54
297.962	0.54
298.095	-3.46
298.229	-1.46
298.362	-0.46
298.495	-1.46
298.629	-13.46
298.762	3.54
298.896	1.54
299.029	-8.46
299.162	18.54
299.296	11.54
299.429	4.54
299.563	20.54
299.696	8.54
299.829	5.54
299.963	14.54
300.096	23.54
300.229	9.54
300.363	-1.46
300.496	3.54
300.629	-15.46
300.763	10.54
300.896	0.54
301.029	11.54
301.162	2.54
301.296	-2.46
301.429	-8.46
301.562	-6.46
301.695	0.54
301.829	12.54
301.962	28.54
302.095	14.54
302.228	22.54
302.362	3.54
302.495	-4.46
302.628	18.54
302.761	11.54
302.894	10.54
303.027	6.54
303.161	-11.46
303.294	-4.46
303.427	21.54
303.56	20.54
303.693	-6.46
303.826	4.54
303.959	0.54
304.092	9.54
304.225	-1.46
304.359	2.54
304.492	2.54
304.625	-8.46
304.758	7.54
304.891	-7.46
305.024	11.54
305.157	13.54
305.29	-12.46
305.423	-0.46
305.556	12.54
305.689	28.54
305.822	-0.46
305.955	7.54
306.088	-9.46
306.221	-22.46
306.354	-4.46
306.487	-16.46
306.62	-14.46
306.752	-5.46
306.885	6.54
307.018	-3.46
307.151	-12.46
307.284	20.54
307.417	-6.46
307.55	14.54
307.683	22.54
307.816	15.54
307.948	9.54
308.081	12.54
308.214	19.54
308.347	40.54
308.48	4.54
308.613	-9.46
308.745	20.54
308.878	-7.46
309.011	-9.46
309.144	15.54
309.277	-20.46
309.409	14.54
309.542	1.54
309.675	9.54
309.808	18.54
309.94	23.54
310.073	-9.46
310.206	-3.46
310.339	6.54
310.471	-3.46
310.604	16.54
310.737	3.54
310.869	2.54
311.002	2.54
311.135	-4.46
311.267	3.54
311.4	-4.46
311.533	30.54
311.665	-9.46
311.798	6.54
311.93	11.54
312.063	20.54
312.196	56.54
312.328	88.54
312.461	74.54
312.593	36.54
312.726	43.54
312.859	92.54
312.991	164.54
313.124	38.54
313.256	22.54
313.389	-2.46
313.521	-15.46
313.654	-8.46
313.786	1.54
313.919	0.54
314.051	4.54
314.184	13.54
314.316	3.54
314.449	1.54
314.581	23.54
314.714	15.54
314.846	1.54
314.978	10.54
315.111	-10.46
315.243	-0.46
315.376	11.54
315.508	17.54
315.641	9.54
315.773	-2.46
315.905	13.54
316.038	3.54
316.17	7.54
316.302	-0.46
316.435	3.54
316.567	0.54
316.699	11.54
316.832	-10.46
316.964	-6.46
317.096	-9.46
317.229	-18.46
317.361	2.54
317.493	0.54
317.625	-0.46
317.758	26.54
317.89	7.54
318.022	3.54
318.155	-5.46
318.287	11.54
318.419	-2.46
318.551	-4.46
318.683	6.54
318.816	-11.46
318.948	0.54
319.08	-27.46
319.212	-3.46
319.344	17.54
319.477	10.54
319.609	8.54
319.741	2.54
319.873	-8.46
320.005	-4.46
320.137	8.54
320.269	25.54
320.401	-9.46
320.534	1.54
320.666	-19.46
320.798	-8.46
320.93	-14.46
321.062	-5.46
321.194	-0.46
321.326	26.54
321.458	30.54
321.59	0.54
321.722	-4.46
321.854	16.54
321.986	-8.46
322.118	6.54
322.25	8.54
322.382	-1.46
322.514	8.54
322.646	-11.46
322.778	20.54
322.91	-14.46
323.042	-0.46
323.174	6.54
323.306	-4.46
323.438	-10.46
323.57	5.54
323.702	17.54
323.834	2.54
323.966	-5.46
324.097	7.54
324.229	9.54
324.361	21.54
324.493	5.54
324.625	-13.46
324.757	-5.46
324.889	4.54
325.021	7.54
325.152	19.54
325.284	9.54
325.416	4.54
325.548	16.54
325.68	-6.46
325.811	23.54
325.943	5.54
326.075	-17.46
326.207	21.54
326.339	14.54
326.47	8.54
326.602	34.54
326.734	18.54
326.866	23.54
326.997	12.54
327.129	3.54
327.261	-6.46
327.392	-5.46
327.524	-7.46
327.656	6.54
327.787	27.54
327.919	6.54
328.051	9.54
328.182	26.54
328.314	34.54
328.446	-5.46
328.577	22.54
328.709	10.54
328.841	-0.46
328.972	-8.46
329.104	0.54
329.235	3.54
329.367	5.54
329.499	0.54
329.63	9.54
329.762	-1.46
329.893	8.54
330.025	9.54
330.156	-0.46
330.288	12.54
330.419	10.54
330.551	14.54
330.683	-0.46
330.814	-11.46
330.946	14.54
331.077	1.54
331.208	2.54
331.34	17.54
331.471	3.54
331.603	16.54
331.734	1.54
331.866	15.54
331.997	6.54
332.129	-5.46
332.26	7.54
332.392	25.54
332.523	3.54
332.654	-3.46
332.786	3.54
332.917	-12.46
333.048	17.54
333.18	34.54
333.311	19.54
333.443	2.54
333.574	12.54
333.705	23.54
333.837	43.54
333.968	125.54
334.099	233.54
334.231	203.54
334.362	59.54
334.493	41.54
334.624	19.54
334.756	19.54
334.887	15.54
335.018	11.54
335.15	29.54
335.281	14.54
335.412	22.54
335.543	11.54
335.675	20.54
335.806	14.54
335.937	-6.46
336.068	10.54
336.199	34.54
336.331	10.54
336.462	-6.46
336.593	29.54
336.724	-7.46
336.855	-5.46
336.986	14.54
337.118	19.54
337.249	12.54
337.38	-0.46
337.511	13.54
337.642	21.54
337.773	-6.46
337.904	1.54
338.035	27.54
338.166	8.54
338.298	12.54
338.429	-9.46
338.56	10.54
338.691	29.54
338.822	45.54
338.953	18.54
339.084	29.54
339.215	-1.46
339.346	8.54
339.477	-6.46
339.608	7.54
339.739	14.54
339.87	7.54
340.001	3.54
340.132	8.54
340.263	3.54
340.394	21.54
340.525	16.54
340.656	-3.46
340.787	10.54
340.918	36.54
341.049	25.54
341.179	8.54
341.31	10.54
341.441	26.54
341.572	17.54
341.703	19.54
341.834	3.54
341.965	2.54
342.096	6.54
342.227	10.54
342.357	32.54
342.488	36.54
342.619	35.54
342.75	23.54
342.881	-5.46
343.012	25.54
343.142	3.54
343.273	8.54
343.404	21.54
343.535	42.54
343.666	32.54
343.796	36.54
343.927	18.54
344.058	40.54
344.189	43.54
344.319	32.54
344.45	24.54
344.581	17.54
344.712	11.54
344.842	12.54
344.973	19.54
345.104	32.54
345.234	15.54
345.365	3.54
345.496	33.54
345.626	18.54
345.757	19.54
345.888	1.54
346.018	23.54
346.149	22.54
346.28	37.54
346.41	21.54
346.541	22.54
346.672	22.54
346.802	26.54
346.933	21.54
347.063	17.54
347.194	20.54
347.325	34.54
347.455	41.54
347.586	33.54
347.716	30.54
347.847	43.54
347.977	43.54
348.108	55.54
348.238	31.54
348.369	35.54
348.499	46.54
348.63	35.54
348.76	60.54
348.891	52.54
349.021	62.54
349.152	59.54
349.282	49.54
349.413	47.54
349.543	66.54
349.674	33.54
349.804	41.54
349.935	7.54
350.065	38.54
350.196	27.54
350.326	19.54
350.456	19.54
350.587	31.54
350.717	23.54
350.848	30.54
350.978	38.54
351.108	3.54
351.239	8.54
351.369	13.54
351.499	9.54
351.63	55.54
351.76	29.54
351.89	14.54
352.021	-1.46
352.151	1.54
352.281	34.54
352.412	35.54
352.542	29.54
352.672	9.54
352.803	24.54
352.933	15.54
353.063	33.54
353.193	14.54
353.324	22.54
353.454	24.54
353.584	67.54
353.714	22.54
353.845	14.54
353.975	15.54
354.105	5.54
354.235	12.54
354.365	19.54
354.496	25.54
354.626	22.54
354.756	15.54
354.886	22.54
355.016	26.54
355.146	23.54
355.277	49.54
355.407	14.54
355.537	28.54
355.667	32.54
355.797	2.54
355.927	17.54
356.057	26.54
356.187	15.54
356.318	19.54
356.448	29.54
356.578	21.54
356.708	41.54
356.838	39.54
356.968	32.54
357.098	40.54
357.228	27.54
357.358	18.54
357.488	25.54
357.618	62.54
357.748	26.54
357.878	24.54
358.008	26.54
358.138	13.54
358.268	21.54
358.398	28.54
358.528	17.54
358.658	35.54
358.788	19.54
358.918	31.54
359.048	14.54
359.178	29.54
359.308	31.54
359.438	54.54
359.568	41.54
359.698	36.54
359.827	26.54
359.957	25.54
360.087	37.54
360.217	33.54
360.347	40.54
360.477	42.54
360.607	10.54
360.737	47.54
360.866	27.54
360.996	21.54
361.126	24.54
361.256	40.54
361.386	22.54
361.516	44.54
361.645	24.54
361.775	37.54
361.905	19.54
362.035	63.54
362.165	37.54
362.294	22.54
362.424	58.54
362.554	40.54
362.684	32.54
362.813	29.54
362.943	59.54
363.073	59.54
363.203	42.54
363.332	70.54
363.462	70.54
363.592	102.54
363.721	117.54
363.851	149.54
363.981	203.54
364.111	246.54
364.24	323.54
364.37	483.54
364.5	857.54
364.629	1819.54
364.759	3840.54
364.888	6268.54
365.018	9485.54
365.148	14829.54
365.277	12925.54
365.407	4747.54
365.537	3116.54
365.666	4031.54
365.796	1821.54
365.925	791.54
366.055	767.54
366.184	1042.54
366.314	1415.54
366.444	2478.54
366.573	2094.54
366.703	629.54
366.832	225.54
366.962	103.54
367.091	84.54
367.221	84.54
367.35	55.54
367.48	74.54
367.609	42.54
367.739	60.54
367.868	24.54
367.998	54.54
368.127	63.54
368.257	67.54
368.386	60.54
368.516	58.54
368.645	26.54
368.775	48.54
368.904	40.54
369.033	47.54
369.163	22.54
369.292	39.54
369.422	34.54
369.551	57.54
369.68	53.54
369.81	56.54
369.939	21.54
370.069	63.54
370.198	59.54
370.327	18.54
370.457	37.54
370.586	36.54
370.715	21.54
370.845	36.54
370.974	10.54
371.103	41.54
371.233	44.54
371.362	57.54
371.491	41.54
371.621	35.54
371.75	56.54
371.879	32.54
372.008	42.54
372.138	45.54
372.267	55.54
372.396	45.54
372.525	31.54
372.655	45.54
372.784	28.54
372.913	36.54
373.042	43.54
373.172	43.54
373.301	10.54
373.43	5.54
373.559	13.54
373.688	36.54
373.818	16.54
373.947	34.54
374.076	28.54
374.205	42.54
374.334	26.54
374.463	18.54
374.593	38.54
374.722	20.54
374.851	44.54
374.98	10.54
375.109	44.54
375.238	30.54
375.367	38.54
375.496	5.54
375.625	9.54
375.755	20.54
375.884	53.54
376.013	36.54
376.142	4.54
376.271	25.54
376.4	20.54
376.529	41.54
376.658	24.54
376.787	29.54
376.916	39.54
377.045	30.54
377.174	41.54
377.303	16.54
377.432	48.54
377.561	40.54
377.69	21.54
377.819	38.54
377.948	27.54
378.077	11.54
378.206	8.54
378.335	12.54
378.464	17.54
378.593	52.54
378.722	22.54
378.851	31.54
378.98	25.54
379.108	7.54
379.237	10.54
379.366	24.54
379.495	14.54
379.624	28.54
379.753	9.54
379.882	15.54
380.011	6.54
380.14	9.54
380.268	12.54
380.397	19.54
380.526	30.54
380.655	2.54
380.784	-1.46
380.913	20.54
381.041	13.54
381.17	-5.46
381.299	18.54
381.428	31.54
381.557	10.54
381.685	19.54
381.814	19.54
381.943	11.54
382.072	21.54
382.2	14.54
382.329	29.54
382.458	17.54
382.587	29.54
382.715	31.54
382.844	22.54
382.973	18.54
383.102	15.54
383.23	23.54
383.359	17.54
383.488	22.54
383.616	-6.46
383.745	-14.46
383.874	18.54
384.003	18.54
384.131	7.54
384.26	10.54
384.389	18.54
384.517	19.54
384.646	6.54
384.774	20.54
384.903	31.54
385.032	37.54
385.16	14.54
385.289	17.54
385.418	-4.46
385.546	30.54
385.675	21.54
385.803	12.54
385.932	15.54
386.06	9.54
386.189	13.54
386.318	19.54
386.446	21.54
386.575	30.54
386.703	23.54
386.832	13.54
386.96	9.54
387.089	39.54
387.217	22.54
387.346	26.54
387.474	11.54
387.603	9.54
387.731	21.54
387.86	26.54
387.988	23.54
388.117	30.54
388.245	29.54
388.374	23.54
388.502	32.54
388.631	13.54
388.759	8.54
388.888	14.54
389.016	9.54
389.144	22.54
389.273	17.54
389.401	18.54
389.53	7.54
389.658	33.54
389.786	10.54
389.915	4.54
390.043	23.54
390.172	41.54
390.3	32.54
390.428	32.54
390.557	39.54
390.685	27.54
390.813	56.54
390.942	36.54
391.07	14.54
391.198	11.54
391.327	28.54
391.455	3.54
391.583	39.54
391.712	29.54
391.84	32.54
391.968	8.54
392.096	28.54
392.225	12.54
392.353	33.54
392.481	33.54
392.609	42.54
392.738	25.54
392.866	39.54
392.994	16.54
393.122	35.54
393.251	28.54
393.379	21.54
393.507	10.54
393.635	28.54
393.764	31.54
393.892	27.54
394.02	38.54
394.148	18.54
394.276	38.54
394.404	53.54
394.533	38.54
394.661	35.54
394.789	31.54
394.917	33.54
395.045	25.54
395.173	33.54
395.302	28.54
395.43	41.54
395.558	35.54
395.686	35.54
395.814	26.54
395.942	26.54
396.07	28.54
396.198	44.54
396.326	33.54
396.454	51.54
396.582	41.54
396.711	26.54
396.839	30.54
396.967	31.54
397.095	34.54
397.223	38.54
397.351	57.54
397.479	54.54
397.607	48.54
397.735	51.54
397.863	51.54
397.991	36.54
398.119	26.54
398.247	55.54
398.375	65.54
398.503	55.54
398.631	62.54
398.759	59.54
398.887	53.54
399.015	37.54
399.143	57.54
399.271	71.54
399.399	56.54
399.526	70.54
399.654	76.54
399.782	60.54
399.91	103.54
400.038	100.54
400.166	75.54
400.294	76.54
400.422	104.54
400.55	118.54
400.678	119.54
400.805	99.54
400.933	110.54
401.061	115.54
401.189	127.54
401.317	145.54
401.445	98.54
401.573	73.54
401.7	38.54
401.828	45.54
401.956	46.54
402.084	53.54
402.212	39.54
402.34	30.54
402.467	36.54
402.595	37.54
402.723	32.54
402.851	58.54
402.978	57.54
403.106	75.54
403.234	91.54
403.362	118.54
403.489	126.54
403.617	153.54
403.745	194.54
403.873	287.54
404	576.54
404.128	1451.54
404.256	3930.54
404.384	5077.54
404.511	5423.54
404.639	7251.54
404.767	11467.54
404.894	14615.54
405.022	4906.54
405.15	1316.54
405.277	430.54
405.405	241.54
405.533	126.54
405.66	110.54
405.788	74.54
405.916	78.54
406.043	55.54
406.171	49.54
406.299	75.54
406.426	68.54
406.554	55.54
406.681	67.54
406.809	58.54
406.937	81.54
407.064	60.54
407.192	149.54
407.319	311.54
407.447	509.54
407.574	544.54
407.702	639.54
407.83	825.54
407.957	1561.54
408.085	960.54
408.212	271.54
408.34	96.54
408.467	57.54
408.595	41.54
408.722	61.54
408.85	58.54
408.977	41.54
409.105	26.54
409.232	46.54
409.36	43.54
409.487	30.54
409.615	35.54
409.742	31.54
409.87	10.54
409.997	38.54
410.125	41.54
410.252	34.54
410.379	37.54
410.507	39.54
410.634	26.54
410.762	39.54
410.889	40.54
411.017	33.54
411.144	37.54
411.271	14.54
411.399	23.54
411.526	30.54
411.653	29.54
411.781	38.54
411.908	23.54
412.036	17.54
412.163	32.54
412.29	20.54
412.418	48.54
412.545	25.54
412.672	12.54
412.8	55.54
412.927	36.54
413.054	40.54
413.182	53.54
413.309	33.54
413.436	27.54
413.564	23.54
413.691	53.54
413.818	55.54
413.945	3.54
414.073	27.54
414.2	31.54
414.327	35.54
414.454	26.54
414.582	30.54
414.709	15.54
414.836	26.54
414.963	37.54
415.091	39.54
415.218	22.54
415.345	27.54
415.472	18.54
415.6	23.54
415.727	11.54
415.854	36.54
415.981	22.54
416.108	18.54
416.236	29.54
416.363	41.54
416.49	28.54
416.617	35.54
416.744	36.54
416.871	31.54
416.998	24.54
417.126	22.54
417.253	27.54
417.38	16.54
417.507	22.54
417.634	44.54
417.761	30.54
417.888	42.54
418.015	30.54
418.143	40.54
418.27	42.54
418.397	22.54
418.524	23.54
418.651	19.54
418.778	48.54
418.905	59.54
419.032	35.54
419.159	47.54
419.286	53.54
