Data from LowRes_mercury_15_20_11_07_2024_HR4C61881__79__15-23-40-170.txt Node

Date: Thu Nov 07 15:23:40 EST 2024
User: crc00042
Spectrometer: HR4C6188
Trigger mode: 4
Integration Time (sec): 1.000000E-1
Scans to average: 1
Electric dark correction enabled: true
Nonlinearity correction enabled: false
Boxcar width: 0
XAxis mode: Wavelengths
Number of Pixels in Spectrum: 3648
>>>>>Begin Spectral Data<<<<<
245.66	-67.54
245.797	-67.54
245.934	-67.54
246.071	-69.54
246.208	15.46
246.344	16.46
246.481	-11.54
246.618	-11.54
246.755	8.46
246.892	-14.54
247.029	-8.54
247.165	-0.54
247.302	12.46
247.439	9.46
247.576	-1.54
247.713	-17.54
247.849	19.46
247.986	-0.54
248.123	6.46
248.26	-8.54
248.396	4.46
248.533	-7.54
248.67	-12.54
248.806	-3.54
248.943	-8.54
249.08	-1.54
249.216	-0.54
249.353	-7.54
249.49	6.46
249.626	-2.54
249.763	11.46
249.9	-1.54
250.036	-4.54
250.173	-2.54
250.309	6.46
250.446	6.46
250.582	6.46
250.719	-21.54
250.856	-7.54
250.992	-4.54
251.129	-0.54
251.265	-12.54
251.402	-4.54
251.538	-17.54
251.675	0.46
251.811	6.46
251.948	0.46
252.084	11.46
252.221	2.46
252.357	-7.54
252.493	31.46
252.63	-7.54
252.766	7.46
252.903	-12.54
253.039	-15.54
253.175	-5.54
253.312	-9.54
253.448	-5.54
253.585	-14.54
253.721	4.46
253.857	-3.54
253.994	8.46
254.13	-19.54
254.266	0.46
254.403	3.46
254.539	-2.54
254.675	7.46
254.811	1.46
254.948	-0.54
255.084	-9.54
255.22	-4.54
255.356	18.46
255.493	16.46
255.629	22.46
255.765	10.46
255.901	22.46
256.037	3.46
256.174	-6.54
256.31	-19.54
256.446	0.46
256.582	-4.54
256.718	4.46
256.854	28.46
256.991	-4.54
257.127	5.46
257.263	-6.54
257.399	-2.54
257.535	-4.54
257.671	11.46
257.807	-9.54
257.943	-4.54
258.079	-5.54
258.215	-11.54
258.351	20.46
258.487	-11.54
258.623	8.46
258.759	-9.54
258.895	-1.54
259.031	-0.54
259.167	-5.54
259.303	20.46
259.439	-7.54
259.575	-23.54
259.711	-15.54
259.847	-10.54
259.983	-0.54
260.119	-18.54
260.255	-4.54
260.391	5.46
260.527	8.46
260.663	22.46
260.799	31.46
260.934	-0.54
261.07	-3.54
261.206	-19.54
261.342	-18.54
261.478	19.46
261.614	-9.54
261.749	3.46
261.885	-3.54
262.021	-11.54
262.157	0.46
262.293	3.46
262.428	2.46
262.564	-8.54
262.7	14.46
262.836	15.46
262.971	25.46
263.107	9.46
263.243	30.46
263.378	-1.54
263.514	-28.54
263.65	0.46
263.785	-1.54
263.921	14.46
264.057	-1.54
264.192	11.46
264.328	14.46
264.464	-10.54
264.599	11.46
264.735	21.46
264.871	-3.54
265.006	5.46
265.142	3.46
265.277	18.46
265.413	14.46
265.548	-1.54
265.684	5.46
265.819	-7.54
265.955	-20.54
266.091	-16.54
266.226	-8.54
266.362	8.46
266.497	9.46
266.633	5.46
266.768	0.46
266.903	4.46
267.039	23.46
267.174	25.46
267.31	-15.54
267.445	-10.54
267.581	14.46
267.716	2.46
267.851	-7.54
267.987	13.46
268.122	11.46
268.258	-4.54
268.393	-19.54
268.528	6.46
268.664	-16.54
268.799	-6.54
268.934	14.46
269.07	-10.54
269.205	-1.54
269.34	20.46
269.476	1.46
269.611	-1.54
269.746	23.46
269.881	7.46
270.017	11.46
270.152	-2.54
270.287	10.46
270.422	15.46
270.558	-9.54
270.693	8.46
270.828	-20.54
270.963	-6.54
271.098	0.46
271.234	4.46
271.369	32.46
271.504	3.46
271.639	-29.54
271.774	-17.54
271.909	-2.54
272.045	-27.54
272.18	-12.54
272.315	-3.54
272.45	18.46
272.585	-4.54
272.72	-8.54
272.855	12.46
272.99	2.46
273.125	-10.54
273.26	-9.54
273.395	-13.54
273.53	-16.54
273.665	6.46
273.8	8.46
273.935	12.46
274.07	3.46
274.205	8.46
274.34	-0.54
274.475	-8.54
274.61	11.46
274.745	-10.54
274.88	14.46
275.015	-9.54
275.15	-5.54
275.285	10.46
275.42	-0.54
275.555	8.46
275.69	15.46
275.825	-5.54
275.959	5.46
276.094	4.46
276.229	-0.54
276.364	-11.54
276.499	-18.54
276.634	-7.54
276.768	-15.54
276.903	-4.54
277.038	11.46
277.173	5.46
277.308	-3.54
277.442	6.46
277.577	-7.54
277.712	11.46
277.847	-8.54
277.981	4.46
278.116	-14.54
278.251	-4.54
278.386	4.46
278.52	16.46
278.655	22.46
278.79	8.46
278.924	9.46
279.059	19.46
279.194	-13.54
279.328	32.46
279.463	9.46
279.598	14.46
279.732	-11.54
279.867	5.46
280.001	7.46
280.136	11.46
280.271	12.46
280.405	27.46
280.54	4.46
280.674	-7.54
280.809	-3.54
280.943	13.46
281.078	-5.54
281.213	15.46
281.347	5.46
281.482	17.46
281.616	-3.54
281.751	-0.54
281.885	-12.54
282.02	-11.54
282.154	13.46
282.288	-6.54
282.423	-7.54
282.557	-9.54
282.692	2.46
282.826	3.46
282.961	2.46
283.095	8.46
283.229	-1.54
283.364	-7.54
283.498	16.46
283.633	8.46
283.767	6.46
283.901	-6.54
284.036	-8.54
284.17	-30.54
284.304	-12.54
284.439	12.46
284.573	23.46
284.707	18.46
284.842	-6.54
284.976	-7.54
285.11	-2.54
285.244	15.46
285.379	29.46
285.513	6.46
285.647	5.46
285.781	9.46
285.916	15.46
286.05	8.46
286.184	33.46
286.318	11.46
286.453	-8.54
286.587	7.46
286.721	2.46
286.855	-8.54
286.989	1.46
287.123	0.46
287.258	-22.54
287.392	-5.54
287.526	3.46
287.66	0.46
287.794	8.46
287.928	18.46
288.062	8.46
288.196	3.46
288.33	11.46
288.464	35.46
288.598	12.46
288.733	4.46
288.867	13.46
289.001	9.46
289.135	12.46
289.269	-14.54
289.403	-2.54
289.537	14.46
289.671	-1.54
289.805	-23.54
289.939	0.46
290.073	3.46
290.207	17.46
290.34	2.46
290.474	35.46
290.608	18.46
290.742	3.46
290.876	-2.54
291.01	1.46
291.144	10.46
291.278	14.46
291.412	7.46
291.546	-8.54
291.679	14.46
291.813	-0.54
291.947	-8.54
292.081	-8.54
292.215	-8.54
292.349	8.46
292.482	17.46
292.616	5.46
292.75	7.46
292.884	12.46
293.018	3.46
293.151	-18.54
293.285	10.46
293.419	-6.54
293.553	-11.54
293.686	6.46
293.82	-5.54
293.954	0.46
294.088	29.46
294.221	-3.54
294.355	-13.54
294.489	-12.54
294.622	-7.54
294.756	0.46
294.89	13.46
295.023	20.46
295.157	6.46
295.291	3.46
295.424	2.46
295.558	-2.54
295.691	-9.54
295.825	-11.54
295.959	-4.54
296.092	10.46
296.226	9.46
296.359	8.46
296.493	14.46
296.627	8.46
296.76	5.46
296.894	6.46
297.027	9.46
297.161	0.46
297.294	2.46
297.428	-18.54
297.561	21.46
297.695	-5.54
297.828	-3.54
297.962	-3.54
298.095	-1.54
298.229	-1.54
298.362	-2.54
298.495	1.46
298.629	16.46
298.762	13.46
298.896	-0.54
299.029	-6.54
299.162	5.46
299.296	-2.54
299.429	-0.54
299.563	1.46
299.696	11.46
299.829	7.46
299.963	15.46
300.096	7.46
300.229	20.46
300.363	-13.54
300.496	-3.54
300.629	-12.54
300.763	7.46
300.896	-9.54
301.029	7.46
301.162	10.46
301.296	-9.54
301.429	-13.54
301.562	-17.54
301.695	20.46
301.829	4.46
301.962	26.46
302.095	7.46
302.228	0.46
302.362	-11.54
302.495	-12.54
302.628	10.46
302.761	11.46
302.894	-4.54
303.027	15.46
303.161	-7.54
303.294	-7.54
303.427	20.46
303.56	3.46
303.693	-12.54
303.826	-1.54
303.959	-0.54
304.092	-10.54
304.225	-5.54
304.359	4.46
304.492	0.46
304.625	-2.54
304.758	-4.54
304.891	0.46
305.024	10.46
305.157	19.46
305.29	7.46
305.423	3.46
305.556	29.46
305.689	7.46
305.822	7.46
305.955	12.46
306.088	10.46
306.221	-7.54
306.354	-13.54
306.487	-0.54
306.62	-8.54
306.752	5.46
306.885	10.46
307.018	4.46
307.151	11.46
307.284	0.46
307.417	-2.54
307.55	4.46
307.683	7.46
307.816	15.46
307.948	-13.54
308.081	9.46
308.214	15.46
308.347	27.46
308.48	4.46
308.613	-7.54
308.745	2.46
308.878	-12.54
309.011	2.46
309.144	-1.54
309.277	-5.54
309.409	9.46
309.542	0.46
309.675	20.46
309.808	9.46
309.94	19.46
310.073	-14.54
310.206	5.46
310.339	10.46
310.471	-4.54
310.604	3.46
310.737	0.46
310.869	5.46
311.002	3.46
311.135	-5.54
311.267	-11.54
311.4	-10.54
311.533	10.46
311.665	10.46
311.798	12.46
311.93	23.46
312.063	32.46
312.196	31.46
312.328	76.46
312.461	42.46
312.593	31.46
312.726	52.46
312.859	94.46
312.991	146.46
313.124	45.46
313.256	20.46
313.389	11.46
313.521	-4.54
313.654	2.46
313.786	-14.54
313.919	-19.54
314.051	-11.54
314.184	2.46
314.316	-1.54
314.449	-7.54
314.581	-10.54
314.714	-3.54
314.846	16.46
314.978	-6.54
315.111	-1.54
315.243	4.46
315.376	12.46
315.508	2.46
315.641	-0.54
315.773	20.46
315.905	13.46
316.038	-0.54
316.17	7.46
316.302	-2.54
316.435	7.46
316.567	-15.54
316.699	27.46
316.832	1.46
316.964	7.46
317.096	-2.54
317.229	-1.54
317.361	-32.54
317.493	-8.54
317.625	-5.54
317.758	6.46
317.89	14.46
318.022	3.46
318.155	-7.54
318.287	-9.54
318.419	8.46
318.551	7.46
318.683	0.46
318.816	22.46
318.948	5.46
319.08	-20.54
319.212	13.46
319.344	-6.54
319.477	3.46
319.609	18.46
319.741	8.46
319.873	-14.54
320.005	-4.54
320.137	-1.54
320.269	10.46
320.401	0.46
320.534	-17.54
320.666	-23.54
320.798	6.46
320.93	-3.54
321.062	-13.54
321.194	-14.54
321.326	8.46
321.458	3.46
321.59	-10.54
321.722	-10.54
321.854	10.46
321.986	-8.54
322.118	2.46
322.25	-18.54
322.382	12.46
322.514	-10.54
322.646	-3.54
322.778	3.46
322.91	-29.54
323.042	-8.54
323.174	4.46
323.306	-2.54
323.438	-9.54
323.57	-7.54
323.702	19.46
323.834	9.46
323.966	-4.54
324.097	7.46
324.229	16.46
324.361	19.46
324.493	5.46
324.625	-11.54
324.757	14.46
324.889	-9.54
325.021	16.46
325.152	33.46
325.284	35.46
325.416	-9.54
325.548	18.46
325.68	2.46
325.811	18.46
325.943	8.46
326.075	14.46
326.207	-6.54
326.339	19.46
326.47	4.46
326.602	11.46
326.734	1.46
326.866	13.46
326.997	-1.54
327.129	12.46
327.261	-19.54
327.392	2.46
327.524	-15.54
327.656	-4.54
327.787	-3.54
327.919	6.46
328.051	11.46
328.182	14.46
328.314	14.46
328.446	-2.54
328.577	8.46
328.709	-2.54
328.841	-6.54
328.972	-8.54
329.104	11.46
329.235	8.46
329.367	-11.54
329.499	-13.54
329.63	22.46
329.762	7.46
329.893	13.46
330.025	8.46
330.156	-4.54
330.288	-0.54
330.419	0.46
330.551	22.46
330.683	5.46
330.814	-13.54
330.946	-6.54
331.077	-1.54
331.208	-5.54
331.34	5.46
331.471	2.46
331.603	15.46
331.734	-4.54
331.866	-1.54
331.997	-11.54
332.129	12.46
332.26	9.46
332.392	29.46
332.523	9.46
332.654	-15.54
332.786	3.46
332.917	-9.54
333.048	23.46
333.18	18.46
333.311	-9.54
333.443	3.46
333.574	20.46
333.705	31.46
333.837	38.46
333.968	127.46
334.099	209.46
334.231	206.46
334.362	41.46
334.493	29.46
334.624	10.46
334.756	22.46
334.887	-2.54
335.018	22.46
335.15	12.46
335.281	18.46
335.412	16.46
335.543	15.46
335.675	-3.54
335.806	15.46
335.937	2.46
336.068	7.46
336.199	27.46
336.331	1.46
336.462	1.46
336.593	0.46
336.724	4.46
336.855	13.46
336.986	16.46
337.118	15.46
337.249	3.46
337.38	6.46
337.511	14.46
337.642	25.46
337.773	11.46
337.904	24.46
338.035	18.46
338.166	-7.54
338.298	12.46
338.429	8.46
338.56	37.46
338.691	33.46
338.822	6.46
338.953	25.46
339.084	32.46
339.215	27.46
339.346	13.46
339.477	6.46
339.608	-0.54
339.739	5.46
339.87	-5.54
340.001	1.46
340.132	8.46
340.263	12.46
340.394	14.46
340.525	10.46
340.656	4.46
340.787	-8.54
340.918	16.46
341.049	4.46
341.179	19.46
341.31	4.46
341.441	26.46
341.572	13.46
341.703	0.46
341.834	0.46
341.965	27.46
342.096	15.46
342.227	24.46
342.357	8.46
342.488	18.46
342.619	28.46
342.75	26.46
342.881	-9.54
343.012	35.46
343.142	51.46
343.273	5.46
343.404	18.46
343.535	47.46
343.666	39.46
343.796	7.46
343.927	23.46
344.058	32.46
344.189	35.46
344.319	33.46
344.45	22.46
344.581	14.46
344.712	7.46
344.842	26.46
344.973	34.46
345.104	21.46
345.234	24.46
345.365	14.46
345.496	6.46
345.626	22.46
345.757	37.46
345.888	20.46
346.018	32.46
346.149	20.46
346.28	39.46
346.41	2.46
346.541	15.46
346.672	20.46
346.802	28.46
346.933	13.46
347.063	25.46
347.194	30.46
347.325	30.46
347.455	38.46
347.586	31.46
347.716	19.46
347.847	22.46
347.977	24.46
348.108	39.46
348.238	24.46
348.369	28.46
348.499	43.46
348.63	46.46
348.76	43.46
348.891	46.46
349.021	50.46
349.152	57.46
349.282	44.46
349.413	38.46
349.543	30.46
349.674	27.46
349.804	33.46
349.935	20.46
350.065	28.46
350.196	3.46
350.326	25.46
350.456	8.46
350.587	24.46
350.717	27.46
350.848	27.46
350.978	16.46
351.108	6.46
351.239	39.46
351.369	22.46
351.499	16.46
351.63	35.46
351.76	28.46
351.89	30.46
352.021	29.46
352.151	23.46
352.281	37.46
352.412	21.46
352.542	27.46
352.672	16.46
352.803	9.46
352.933	20.46
353.063	14.46
353.193	14.46
353.324	10.46
353.454	28.46
353.584	21.46
353.714	19.46
353.845	9.46
353.975	31.46
354.105	13.46
354.235	0.46
354.365	18.46
354.496	17.46
354.626	21.46
354.756	32.46
354.886	32.46
355.016	24.46
355.146	9.46
355.277	27.46
355.407	15.46
355.537	14.46
355.667	13.46
355.797	23.46
355.927	21.46
356.057	26.46
356.187	22.46
356.318	21.46
356.448	29.46
356.578	34.46
356.708	33.46
356.838	30.46
356.968	21.46
357.098	39.46
357.228	43.46
357.358	28.46
357.488	25.46
357.618	58.46
357.748	45.46
357.878	30.46
358.008	19.46
358.138	20.46
358.268	12.46
358.398	29.46
358.528	-9.54
358.658	28.46
358.788	30.46
358.918	23.46
359.048	18.46
359.178	40.46
359.308	40.46
359.438	45.46
359.568	50.46
359.698	47.46
359.827	26.46
359.957	28.46
360.087	33.46
360.217	31.46
360.347	12.46
360.477	38.46
360.607	0.46
360.737	39.46
360.866	28.46
360.996	9.46
361.126	16.46
361.256	45.46
361.386	35.46
361.516	28.46
361.645	0.46
361.775	33.46
361.905	16.46
362.035	37.46
362.165	31.46
362.294	46.46
362.424	59.46
362.554	58.46
362.684	30.46
362.813	48.46
362.943	68.46
363.073	64.46
363.203	68.46
363.332	78.46
363.462	89.46
363.592	103.46
363.721	116.46
363.851	167.46
363.981	222.46
364.111	243.46
364.24	306.46
364.37	477.46
364.5	832.46
364.629	1811.46
364.759	3880.46
364.888	6324.46
365.018	9401.46
365.148	14819.46
365.277	12965.46
365.407	4812.46
365.537	3122.46
365.666	4026.46
365.796	1832.46
365.925	805.46
366.055	757.46
366.184	1059.46
366.314	1410.46
366.444	2456.46
366.573	2120.46
366.703	664.46
366.832	225.46
366.962	112.46
367.091	79.46
367.221	74.46
367.35	31.46
367.48	84.46
367.609	71.46
367.739	61.46
367.868	36.46
367.998	42.46
368.127	48.46
368.257	50.46
368.386	50.46
368.516	67.46
368.645	48.46
368.775	37.46
368.904	23.46
369.033	31.46
369.163	26.46
369.292	29.46
369.422	20.46
369.551	40.46
369.68	47.46
369.81	41.46
369.939	32.46
370.069	33.46
370.198	26.46
370.327	15.46
370.457	61.46
370.586	63.46
370.715	34.46
370.845	24.46
370.974	41.46
371.103	41.46
371.233	66.46
371.362	51.46
371.491	39.46
371.621	67.46
371.75	37.46
371.879	35.46
372.008	20.46
372.138	38.46
372.267	47.46
372.396	45.46
372.525	24.46
372.655	39.46
372.784	23.46
372.913	20.46
373.042	12.46
373.172	41.46
373.301	18.46
373.43	24.46
373.559	2.46
373.688	27.46
373.818	23.46
373.947	28.46
374.076	14.46
374.205	35.46
374.334	6.46
374.463	13.46
374.593	16.46
374.722	27.46
374.851	38.46
374.98	20.46
375.109	23.46
375.238	31.46
375.367	48.46
375.496	-1.54
375.625	13.46
375.755	30.46
375.884	46.46
376.013	33.46
376.142	21.46
376.271	19.46
376.4	38.46
376.529	42.46
376.658	32.46
376.787	11.46
376.916	20.46
377.045	26.46
377.174	30.46
377.303	15.46
377.432	41.46
377.561	4.46
377.69	17.46
377.819	38.46
377.948	23.46
378.077	31.46
378.206	19.46
378.335	14.46
378.464	6.46
378.593	33.46
378.722	10.46
378.851	18.46
378.98	29.46
379.108	7.46
379.237	3.46
379.366	18.46
379.495	33.46
379.624	32.46
379.753	17.46
379.882	22.46
380.011	11.46
380.14	11.46
380.268	18.46
380.397	18.46
380.526	46.46
380.655	10.46
380.784	13.46
380.913	14.46
381.041	11.46
381.17	-10.54
381.299	21.46
381.428	12.46
381.557	16.46
381.685	25.46
381.814	30.46
381.943	22.46
382.072	-4.54
382.2	6.46
382.329	26.46
382.458	6.46
382.587	26.46
382.715	30.46
382.844	19.46
382.973	17.46
383.102	20.46
383.23	22.46
383.359	-10.54
383.488	28.46
383.616	34.46
383.745	5.46
383.874	14.46
384.003	0.46
384.131	14.46
384.26	22.46
384.389	31.46
384.517	8.46
384.646	11.46
384.774	18.46
384.903	51.46
385.032	28.46
385.16	24.46
385.289	38.46
385.418	22.46
385.546	15.46
385.675	35.46
385.803	31.46
385.932	20.46
386.06	17.46
386.189	24.46
386.318	28.46
386.446	12.46
386.575	31.46
386.703	29.46
386.832	18.46
386.96	10.46
387.089	43.46
387.217	11.46
387.346	15.46
387.474	28.46
387.603	20.46
387.731	13.46
387.86	22.46
387.988	14.46
388.117	22.46
388.245	-1.54
388.374	20.46
388.502	32.46
388.631	12.46
388.759	4.46
388.888	13.46
389.016	5.46
389.144	28.46
389.273	40.46
389.401	-4.54
389.53	6.46
389.658	38.46
389.786	20.46
389.915	19.46
390.043	14.46
390.172	24.46
390.3	58.46
390.428	31.46
390.557	14.46
390.685	32.46
390.813	46.46
390.942	59.46
391.07	31.46
391.198	16.46
391.327	8.46
391.455	6.46
391.583	34.46
391.712	16.46
391.84	25.46
391.968	15.46
392.096	-6.54
392.225	31.46
392.353	40.46
392.481	35.46
392.609	42.46
392.738	13.46
392.866	11.46
392.994	20.46
393.122	43.46
393.251	30.46
393.379	23.46
393.507	9.46
393.635	12.46
393.764	24.46
393.892	31.46
394.02	16.46
394.148	28.46
394.276	17.46
394.404	40.46
394.533	14.46
394.661	30.46
394.789	32.46
394.917	38.46
395.045	27.46
395.173	11.46
395.302	16.46
395.43	22.46
395.558	37.46
395.686	28.46
395.814	32.46
395.942	27.46
396.07	27.46
396.198	22.46
396.326	25.46
396.454	28.46
396.582	29.46
396.711	9.46
396.839	34.46
396.967	32.46
397.095	8.46
397.223	37.46
397.351	57.46
397.479	41.46
397.607	41.46
397.735	38.46
397.863	33.46
397.991	41.46
398.119	46.46
398.247	45.46
398.375	41.46
398.503	49.46
398.631	53.46
398.759	51.46
398.887	49.46
399.015	48.46
399.143	66.46
399.271	61.46
399.399	70.46
399.526	79.46
399.654	89.46
399.782	66.46
399.91	98.46
400.038	88.46
400.166	87.46
400.294	89.46
400.422	94.46
400.55	85.46
400.678	95.46
400.805	115.46
400.933	115.46
401.061	93.46
401.189	107.46
401.317	136.46
401.445	94.46
401.573	84.46
401.7	47.46
401.828	43.46
401.956	34.46
402.084	47.46
402.212	35.46
402.34	20.46
402.467	36.46
402.595	45.46
402.723	25.46
402.851	74.46
402.978	55.46
403.106	82.46
403.234	89.46
403.362	127.46
403.489	136.46
403.617	167.46
403.745	200.46
403.873	279.46
404	550.46
404.128	1444.46
404.256	3941.46
404.384	5129.46
404.511	5462.46
404.639	7245.46
404.767	11366.46
404.894	14638.46
405.022	4894.46
405.15	1311.46
405.277	419.46
405.405	238.46
405.533	132.46
405.66	94.46
405.788	48.46
405.916	63.46
406.043	47.46
406.171	39.46
406.299	66.46
406.426	61.46
406.554	69.46
406.681	68.46
406.809	46.46
406.937	48.46
407.064	61.46
407.192	141.46
407.319	294.46
407.447	514.46
407.574	523.46
407.702	614.46
407.83	866.46
407.957	1604.46
408.085	942.46
408.212	296.46
408.34	86.46
408.467	52.46
408.595	50.46
408.722	38.46
408.85	45.46
408.977	42.46
409.105	32.46
409.232	18.46
409.36	29.46
409.487	29.46
409.615	21.46
409.742	39.46
409.87	34.46
409.997	37.46
410.125	41.46
410.252	50.46
410.379	23.46
410.507	26.46
410.634	9.46
410.762	26.46
410.889	53.46
411.017	34.46
411.144	42.46
411.271	34.46
411.399	24.46
411.526	36.46
411.653	45.46
411.781	46.46
411.908	46.46
412.036	18.46
412.163	32.46
412.29	23.46
412.418	8.46
412.545	31.46
412.672	20.46
412.8	49.46
412.927	36.46
413.054	34.46
413.182	22.46
413.309	12.46
413.436	5.46
413.564	16.46
413.691	12.46
413.818	31.46
413.945	17.46
414.073	43.46
414.2	38.46
414.327	36.46
414.454	30.46
414.582	23.46
414.709	31.46
414.836	30.46
414.963	35.46
415.091	33.46
415.218	25.46
415.345	26.46
415.472	34.46
415.6	18.46
415.727	30.46
415.854	35.46
415.981	21.46
416.108	19.46
416.236	28.46
416.363	34.46
416.49	24.46
416.617	35.46
416.744	34.46
416.871	41.46
416.998	15.46
417.126	45.46
417.253	15.46
417.38	30.46
417.507	14.46
417.634	33.46
417.761	42.46
417.888	37.46
418.015	32.46
418.143	27.46
418.27	47.46
418.397	40.46
418.524	19.46
418.651	32.46
418.778	40.46
418.905	60.46
