Data from LowRes_mercury_15_20_11_07_2024_HR4C61881__94__15-23-41-670.txt Node

Date: Thu Nov 07 15:23:41 EST 2024
User: crc00042
Spectrometer: HR4C6188
Trigger mode: 4
Integration Time (sec): 1.000000E-1
Scans to average: 1
Electric dark correction enabled: true
Nonlinearity correction enabled: false
Boxcar width: 0
XAxis mode: Wavelengths
Number of Pixels in Spectrum: 3648
>>>>>Begin Spectral Data<<<<<
245.66	-64.69
245.797	-64.69
245.934	-64.69
246.071	-56.69
246.208	18.31
246.344	1.31
246.481	-11.69
246.618	-0.69
246.755	16.31
246.892	2.31
247.029	-6.69
247.165	-19.69
247.302	12.31
247.439	-10.69
247.576	6.31
247.713	-4.69
247.849	26.31
247.986	-10.69
248.123	24.31
248.26	0.31
248.396	10.31
248.533	0.31
248.67	-0.69
248.806	10.31
248.943	-15.69
249.08	-12.69
249.216	-4.69
249.353	-16.69
249.49	-7.69
249.626	-6.69
249.763	13.31
249.9	12.31
250.036	0.31
250.173	13.31
250.309	8.31
250.446	4.31
250.582	13.31
250.719	-0.69
250.856	-10.69
250.992	-11.69
251.129	-13.69
251.265	-9.69
251.402	-2.69
251.538	-1.69
251.675	1.31
251.811	0.31
251.948	14.31
252.084	19.31
252.221	-8.69
252.357	-9.69
252.493	36.31
252.63	-3.69
252.766	13.31
252.903	9.31
253.039	-18.69
253.175	-9.69
253.312	12.31
253.448	-13.69
253.585	-5.69
253.721	16.31
253.857	-8.69
253.994	0.31
254.13	-2.69
254.266	12.31
254.403	12.31
254.539	2.31
254.675	18.31
254.811	16.31
254.948	12.31
255.084	-9.69
255.22	8.31
255.356	7.31
255.493	0.31
255.629	10.31
255.765	-5.69
255.901	9.31
256.037	5.31
256.174	10.31
256.31	-11.69
256.446	8.31
256.582	-0.69
256.718	13.31
256.854	23.31
256.991	5.31
257.127	2.31
257.263	-6.69
257.399	0.31
257.535	-6.69
257.671	2.31
257.807	-5.69
257.943	-5.69
258.079	-14.69
258.215	0.31
258.351	25.31
258.487	0.31
258.623	2.31
258.759	-8.69
258.895	2.31
259.031	0.31
259.167	-22.69
259.303	21.31
259.439	-8.69
259.575	-3.69
259.711	4.31
259.847	5.31
259.983	12.31
260.119	5.31
260.255	2.31
260.391	7.31
260.527	-0.69
260.663	15.31
260.799	20.31
260.934	6.31
261.07	1.31
261.206	-2.69
261.342	-14.69
261.478	9.31
261.614	12.31
261.749	20.31
261.885	-2.69
262.021	3.31
262.157	17.31
262.293	5.31
262.428	-16.69
262.564	-10.69
262.7	6.31
262.836	17.31
262.971	14.31
263.107	10.31
263.243	18.31
263.378	3.31
263.514	-10.69
263.65	13.31
263.785	2.31
263.921	-15.69
264.057	-4.69
264.192	27.31
264.328	36.31
264.464	14.31
264.599	17.31
264.735	28.31
264.871	4.31
265.006	20.31
265.142	12.31
265.277	0.31
265.413	-9.69
265.548	1.31
265.684	12.31
265.819	5.31
265.955	-5.69
266.091	-18.69
266.226	-5.69
266.362	-1.69
266.497	-8.69
266.633	-2.69
266.768	1.31
266.903	10.31
267.039	25.31
267.174	13.31
267.31	-3.69
267.445	-16.69
267.581	9.31
267.716	16.31
267.851	11.31
267.987	17.31
268.122	10.31
268.258	-13.69
268.393	-12.69
268.528	9.31
268.664	-15.69
268.799	-7.69
268.934	12.31
269.07	1.31
269.205	15.31
269.34	16.31
269.476	5.31
269.611	-16.69
269.746	26.31
269.881	4.31
270.017	21.31
270.152	3.31
270.287	0.31
270.422	8.31
270.558	3.31
270.693	16.31
270.828	-3.69
270.963	-7.69
271.098	-2.69
271.234	20.31
271.369	30.31
271.504	10.31
271.639	-3.69
271.774	13.31
271.909	12.31
272.045	1.31
272.18	-3.69
272.315	-2.69
272.45	12.31
272.585	-7.69
272.72	17.31
272.855	13.31
272.99	14.31
273.125	-4.69
273.26	2.31
273.395	-13.69
273.53	7.31
273.665	1.31
273.8	2.31
273.935	-4.69
274.07	13.31
274.205	10.31
274.34	10.31
274.475	-6.69
274.61	33.31
274.745	-4.69
274.88	10.31
275.015	-22.69
275.15	-4.69
275.285	-10.69
275.42	-3.69
275.555	-0.69
275.69	9.31
275.825	-6.69
275.959	19.31
276.094	-6.69
276.229	-4.69
276.364	-13.69
276.499	-7.69
276.634	-6.69
276.768	-8.69
276.903	8.31
277.038	6.31
277.173	7.31
277.308	-1.69
277.442	18.31
277.577	-25.69
277.712	-12.69
277.847	0.31
277.981	8.31
278.116	-17.69
278.251	31.31
278.386	26.31
278.52	3.31
278.655	-0.69
278.79	13.31
278.924	-12.69
279.059	-3.69
279.194	-16.69
279.328	26.31
279.463	10.31
279.598	21.31
279.732	23.31
279.867	-9.69
280.001	20.31
280.136	17.31
280.271	1.31
280.405	20.31
280.54	6.31
280.674	18.31
280.809	31.31
280.943	-12.69
281.078	-16.69
281.213	4.31
281.347	29.31
281.482	17.31
281.616	-14.69
281.751	7.31
281.885	0.31
282.02	8.31
282.154	9.31
282.288	-0.69
282.423	-21.69
282.557	-7.69
282.692	9.31
282.826	19.31
282.961	21.31
283.095	-3.69
283.229	-11.69
283.364	-6.69
283.498	-2.69
283.633	9.31
283.767	-3.69
283.901	2.31
284.036	5.31
284.17	-16.69
284.304	0.31
284.439	-2.69
284.573	-4.69
284.707	9.31
284.842	-2.69
284.976	9.31
285.11	-11.69
285.244	6.31
285.379	43.31
285.513	-1.69
285.647	5.31
285.781	8.31
285.916	22.31
286.05	0.31
286.184	14.31
286.318	28.31
286.453	1.31
286.587	-15.69
286.721	4.31
286.855	6.31
286.989	3.31
287.123	5.31
287.258	-3.69
287.392	11.31
287.526	18.31
287.66	1.31
287.794	1.31
287.928	5.31
288.062	8.31
288.196	-9.69
288.33	-2.69
288.464	18.31
288.598	8.31
288.733	18.31
288.867	9.31
289.001	18.31
289.135	11.31
289.269	6.31
289.403	1.31
289.537	10.31
289.671	12.31
289.805	-4.69
289.939	2.31
290.073	-1.69
290.207	14.31
290.34	9.31
290.474	17.31
290.608	0.31
290.742	3.31
290.876	-0.69
291.01	15.31
291.144	24.31
291.278	25.31
291.412	24.31
291.546	5.31
291.679	11.31
291.813	9.31
291.947	2.31
292.081	10.31
292.215	-3.69
292.349	18.31
292.482	32.31
292.616	2.31
292.75	20.31
292.884	5.31
293.018	2.31
293.151	-15.69
293.285	14.31
293.419	-10.69
293.553	-22.69
293.686	-5.69
293.82	15.31
293.954	23.31
294.088	22.31
294.221	9.31
294.355	-2.69
294.489	15.31
294.622	-14.69
294.756	-4.69
294.89	6.31
295.023	8.31
295.157	12.31
295.291	25.31
295.424	17.31
295.558	9.31
295.691	2.31
295.825	7.31
295.959	9.31
296.092	-17.69
296.226	13.31
296.359	-0.69
296.493	-2.69
296.627	-1.69
296.76	10.31
296.894	0.31
297.027	-6.69
297.161	6.31
297.294	-10.69
297.428	7.31
297.561	17.31
297.695	14.31
297.828	5.31
297.962	-8.69
298.095	0.31
298.229	-4.69
298.362	-5.69
298.495	11.31
298.629	6.31
298.762	7.31
298.896	0.31
299.029	1.31
299.162	0.31
299.296	12.31
299.429	-5.69
299.563	-1.69
299.696	18.31
299.829	20.31
299.963	10.31
300.096	12.31
300.229	5.31
300.363	21.31
300.496	23.31
300.629	-21.69
300.763	-14.69
300.896	-17.69
301.029	-7.69
301.162	-10.69
301.296	-16.69
301.429	6.31
301.562	-13.69
301.695	24.31
301.829	21.31
301.962	31.31
302.095	21.31
302.228	3.31
302.362	2.31
302.495	-9.69
302.628	5.31
302.761	11.31
302.894	12.31
303.027	16.31
303.161	-7.69
303.294	1.31
303.427	21.31
303.56	-17.69
303.693	-6.69
303.826	-1.69
303.959	-0.69
304.092	16.31
304.225	-11.69
304.359	1.31
304.492	2.31
304.625	8.31
304.758	2.31
304.891	-0.69
305.024	12.31
305.157	1.31
305.29	5.31
305.423	14.31
305.556	-7.69
305.689	13.31
305.822	2.31
305.955	5.31
306.088	-8.69
306.221	-10.69
306.354	-13.69
306.487	-3.69
306.62	-10.69
306.752	-13.69
306.885	3.31
307.018	28.31
307.151	1.31
307.284	12.31
307.417	-16.69
307.55	26.31
307.683	6.31
307.816	24.31
307.948	15.31
308.081	-5.69
308.214	24.31
308.347	6.31
308.48	-7.69
308.613	-22.69
308.745	2.31
308.878	1.31
309.011	-4.69
309.144	0.31
309.277	5.31
309.409	8.31
309.542	7.31
309.675	15.31
309.808	4.31
309.94	17.31
310.073	2.31
310.206	4.31
310.339	1.31
310.471	-19.69
310.604	17.31
310.737	-4.69
310.869	-2.69
311.002	-3.69
311.135	-4.69
311.267	-38.69
311.4	-9.69
311.533	23.31
311.665	8.31
311.798	4.31
311.93	9.31
312.063	30.31
312.196	18.31
312.328	66.31
312.461	61.31
312.593	16.31
312.726	37.31
312.859	96.31
312.991	163.31
313.124	58.31
313.256	16.31
313.389	17.31
313.521	-10.69
313.654	8.31
313.786	-10.69
313.919	-9.69
314.051	-3.69
314.184	12.31
314.316	10.31
314.449	-21.69
314.581	-6.69
314.714	15.31
314.846	16.31
314.978	-6.69
315.111	-7.69
315.243	-6.69
315.376	4.31
315.508	11.31
315.641	9.31
315.773	26.31
315.905	16.31
316.038	17.31
316.17	-8.69
316.302	14.31
316.435	6.31
316.567	2.31
316.699	14.31
316.832	2.31
316.964	11.31
317.096	-1.69
317.229	-1.69
317.361	-9.69
317.493	3.31
317.625	0.31
317.758	15.31
317.89	25.31
318.022	2.31
318.155	0.31
318.287	11.31
318.419	10.31
318.551	-1.69
318.683	-1.69
318.816	-12.69
318.948	-0.69
319.08	-1.69
319.212	3.31
319.344	14.31
319.477	11.31
319.609	11.31
319.741	17.31
319.873	3.31
320.005	-3.69
320.137	10.31
320.269	8.31
320.401	7.31
320.534	-3.69
320.666	0.31
320.798	-7.69
320.93	-8.69
321.062	-10.69
321.194	-9.69
321.326	12.31
321.458	11.31
321.59	3.31
321.722	5.31
321.854	0.31
321.986	-1.69
322.118	8.31
322.25	-26.69
322.382	7.31
322.514	0.31
322.646	15.31
322.778	27.31
322.91	-13.69
323.042	3.31
323.174	-17.69
323.306	-16.69
323.438	-25.69
323.57	0.31
323.702	2.31
323.834	7.31
323.966	-13.69
324.097	-9.69
324.229	2.31
324.361	5.31
324.493	7.31
324.625	-7.69
324.757	14.31
324.889	5.31
325.021	7.31
325.152	7.31
325.284	14.31
325.416	-1.69
325.548	7.31
325.68	-13.69
325.811	27.31
325.943	12.31
326.075	-3.69
326.207	24.31
326.339	23.31
326.47	15.31
326.602	19.31
326.734	16.31
326.866	30.31
326.997	-11.69
327.129	-3.69
327.261	-20.69
327.392	2.31
327.524	10.31
327.656	6.31
327.787	-6.69
327.919	18.31
328.051	4.31
328.182	15.31
328.314	27.31
328.446	-5.69
328.577	15.31
328.709	0.31
328.841	-6.69
328.972	-3.69
329.104	15.31
329.235	-5.69
329.367	11.31
329.499	-0.69
329.63	21.31
329.762	-13.69
329.893	15.31
330.025	9.31
330.156	-16.69
330.288	-8.69
330.419	11.31
330.551	12.31
330.683	23.31
330.814	-4.69
330.946	23.31
331.077	2.31
331.208	4.31
331.34	1.31
331.471	-9.69
331.603	-9.69
331.734	-17.69
331.866	-0.69
331.997	10.31
332.129	22.31
332.26	2.31
332.392	24.31
332.523	3.31
332.654	-2.69
332.786	6.31
332.917	-5.69
333.048	19.31
333.18	9.31
333.311	-2.69
333.443	5.31
333.574	19.31
333.705	29.31
333.837	48.31
333.968	118.31
334.099	230.31
334.231	223.31
334.362	46.31
334.493	36.31
334.624	27.31
334.756	16.31
334.887	20.31
335.018	23.31
335.15	15.31
335.281	16.31
335.412	14.31
335.543	5.31
335.675	24.31
335.806	-0.69
335.937	21.31
336.068	13.31
336.199	27.31
336.331	15.31
336.462	2.31
336.593	16.31
336.724	-9.69
336.855	17.31
336.986	30.31
337.118	2.31
337.249	10.31
337.38	-2.69
337.511	12.31
337.642	8.31
337.773	9.31
337.904	13.31
338.035	23.31
338.166	7.31
338.298	-1.69
338.429	0.31
338.56	29.31
338.691	18.31
338.822	7.31
338.953	15.31
339.084	36.31
339.215	25.31
339.346	18.31
339.477	11.31
339.608	-6.69
339.739	16.31
339.87	13.31
340.001	13.31
340.132	8.31
340.263	13.31
340.394	8.31
340.525	35.31
340.656	9.31
340.787	5.31
340.918	21.31
341.049	-1.69
341.179	9.31
341.31	16.31
341.441	18.31
341.572	18.31
341.703	15.31
341.834	2.31
341.965	18.31
342.096	22.31
342.227	16.31
342.357	11.31
342.488	7.31
342.619	11.31
342.75	17.31
342.881	6.31
343.012	32.31
343.142	37.31
343.273	-3.69
343.404	10.31
343.535	35.31
343.666	22.31
343.796	28.31
343.927	26.31
344.058	31.31
344.189	24.31
344.319	17.31
344.45	14.31
344.581	36.31
344.712	-5.69
344.842	5.31
344.973	-2.69
345.104	31.31
345.234	23.31
345.365	42.31
345.496	35.31
345.626	21.31
345.757	41.31
345.888	11.31
346.018	20.31
346.149	28.31
346.28	46.31
346.41	21.31
346.541	25.31
346.672	25.31
346.802	36.31
346.933	30.31
347.063	18.31
347.194	22.31
347.325	39.31
347.455	36.31
347.586	29.31
347.716	20.31
347.847	46.31
347.977	35.31
348.108	57.31
348.238	39.31
348.369	46.31
348.499	52.31
348.63	40.31
348.76	34.31
348.891	47.31
349.021	54.31
349.152	45.31
349.282	66.31
349.413	53.31
349.543	42.31
349.674	30.31
349.804	28.31
349.935	37.31
350.065	21.31
350.196	14.31
350.326	17.31
350.456	21.31
350.587	34.31
350.717	22.31
350.848	30.31
350.978	30.31
351.108	20.31
351.239	48.31
351.369	25.31
351.499	10.31
351.63	26.31
351.76	15.31
351.89	27.31
352.021	30.31
352.151	7.31
352.281	16.31
352.412	26.31
352.542	15.31
352.672	20.31
352.803	15.31
352.933	34.31
353.063	18.31
353.193	15.31
353.324	28.31
353.454	52.31
353.584	31.31
353.714	20.31
353.845	29.31
353.975	17.31
354.105	0.31
354.235	18.31
354.365	13.31
354.496	20.31
354.626	31.31
354.756	27.31
354.886	21.31
355.016	40.31
355.146	14.31
355.277	17.31
355.407	23.31
355.537	27.31
355.667	21.31
355.797	25.31
355.927	12.31
356.057	39.31
356.187	29.31
356.318	24.31
356.448	7.31
356.578	44.31
356.708	41.31
356.838	20.31
356.968	23.31
357.098	30.31
357.228	37.31
357.358	20.31
357.488	18.31
357.618	42.31
357.748	51.31
357.878	21.31
358.008	9.31
358.138	9.31
358.268	15.31
358.398	32.31
358.528	6.31
358.658	51.31
358.788	55.31
358.918	32.31
359.048	28.31
359.178	37.31
359.308	26.31
359.438	41.31
359.568	31.31
359.698	30.31
359.827	20.31
359.957	13.31
360.087	20.31
360.217	21.31
360.347	31.31
360.477	39.31
360.607	27.31
360.737	49.31
360.866	34.31
360.996	20.31
361.126	16.31
361.256	42.31
361.386	36.31
361.516	38.31
361.645	21.31
361.775	26.31
361.905	21.31
362.035	25.31
362.165	28.31
362.294	49.31
362.424	49.31
362.554	34.31
362.684	26.31
362.813	49.31
362.943	50.31
363.073	49.31
363.203	67.31
363.332	64.31
363.462	78.31
363.592	95.31
363.721	127.31
363.851	145.31
363.981	191.31
364.111	260.31
364.24	319.31
364.37	491.31
364.5	854.31
364.629	1796.31
364.759	3827.31
364.888	6249.31
365.018	9343.31
365.148	14758.31
365.277	12924.31
365.407	4740.31
365.537	3046.31
365.666	3969.31
365.796	1792.31
365.925	790.31
366.055	750.31
366.184	1016.31
366.314	1375.31
366.444	2476.31
366.573	2110.31
366.703	669.31
366.832	222.31
366.962	127.31
367.091	90.31
367.221	79.31
367.35	50.31
367.48	91.31
367.609	39.31
367.739	37.31
367.868	37.31
367.998	41.31
368.127	80.31
368.257	48.31
368.386	43.31
368.516	50.31
368.645	27.31
368.775	41.31
368.904	38.31
369.033	5.31
369.163	24.31
369.292	23.31
369.422	19.31
369.551	45.31
369.68	42.31
369.81	35.31
369.939	35.31
370.069	39.31
370.198	51.31
370.327	22.31
370.457	25.31
370.586	30.31
370.715	35.31
370.845	26.31
370.974	33.31
371.103	58.31
371.233	65.31
371.362	49.31
371.491	45.31
371.621	46.31
371.75	40.31
371.879	34.31
372.008	42.31
372.138	45.31
372.267	50.31
372.396	30.31
372.525	34.31
372.655	31.31
372.784	30.31
372.913	25.31
373.042	27.31
373.172	54.31
373.301	7.31
373.43	-8.69
373.559	30.31
373.688	38.31
373.818	33.31
373.947	29.31
374.076	31.31
374.205	46.31
374.334	28.31
374.463	21.31
374.593	23.31
374.722	21.31
374.851	30.31
374.98	20.31
375.109	25.31
375.238	30.31
375.367	33.31
375.496	-3.69
375.625	-10.69
375.755	25.31
375.884	37.31
376.013	41.31
376.142	9.31
376.271	18.31
376.4	15.31
376.529	20.31
376.658	17.31
376.787	31.31
376.916	25.31
377.045	30.31
377.174	23.31
377.303	16.31
377.432	41.31
377.561	24.31
377.69	23.31
377.819	29.31
377.948	22.31
378.077	2.31
378.206	13.31
378.335	14.31
378.464	6.31
378.593	26.31
378.722	4.31
378.851	10.31
378.98	25.31
379.108	19.31
379.237	8.31
379.366	9.31
379.495	37.31
379.624	17.31
379.753	6.31
379.882	14.31
380.011	16.31
380.14	16.31
380.268	7.31
380.397	14.31
380.526	42.31
380.655	23.31
380.784	-11.69
380.913	2.31
381.041	9.31
381.17	-12.69
381.299	6.31
381.428	26.31
381.557	31.31
381.685	3.31
381.814	14.31
381.943	28.31
382.072	31.31
382.2	-1.69
382.329	0.31
382.458	-1.69
382.587	6.31
382.715	37.31
382.844	33.31
382.973	20.31
383.102	30.31
383.23	11.31
383.359	1.31
383.488	19.31
383.616	15.31
383.745	17.31
383.874	13.31
384.003	7.31
384.131	9.31
384.26	10.31
384.389	33.31
384.517	29.31
384.646	29.31
384.774	25.31
384.903	37.31
385.032	25.31
385.16	24.31
385.289	5.31
385.418	9.31
385.546	12.31
385.675	29.31
385.803	21.31
385.932	17.31
386.06	7.31
386.189	23.31
386.318	26.31
386.446	28.31
386.575	40.31
386.703	34.31
386.832	24.31
386.96	22.31
387.089	38.31
387.217	16.31
387.346	18.31
387.474	28.31
387.603	21.31
387.731	27.31
387.86	47.31
387.988	33.31
388.117	33.31
388.245	23.31
388.374	10.31
388.502	42.31
388.631	7.31
388.759	12.31
388.888	29.31
389.016	15.31
389.144	19.31
389.273	22.31
389.401	27.31
389.53	11.31
389.658	39.31
389.786	15.31
389.915	-1.69
390.043	4.31
390.172	37.31
390.3	71.31
390.428	41.31
390.557	45.31
390.685	38.31
390.813	55.31
390.942	46.31
391.07	33.31
391.198	21.31
391.327	17.31
391.455	11.31
391.583	35.31
391.712	32.31
391.84	27.31
391.968	29.31
392.096	27.31
392.225	23.31
392.353	23.31
392.481	10.31
392.609	34.31
392.738	32.31
392.866	41.31
392.994	11.31
393.122	37.31
393.251	21.31
393.379	16.31
393.507	17.31
393.635	33.31
393.764	21.31
393.892	25.31
394.02	16.31
394.148	26.31
394.276	35.31
394.404	47.31
394.533	25.31
394.661	37.31
394.789	39.31
394.917	40.31
395.045	28.31
395.173	7.31
395.302	22.31
395.43	26.31
395.558	31.31
395.686	38.31
395.814	31.31
395.942	41.31
396.07	33.31
396.198	38.31
396.326	38.31
396.454	34.31
396.582	14.31
396.711	14.31
396.839	30.31
396.967	44.31
397.095	37.31
397.223	38.31
397.351	47.31
397.479	49.31
397.607	36.31
397.735	45.31
397.863	40.31
397.991	45.31
398.119	29.31
398.247	58.31
398.375	30.31
398.503	39.31
398.631	61.31
398.759	68.31
398.887	52.31
399.015	35.31
399.143	54.31
399.271	63.31
399.399	62.31
399.526	67.31
399.654	86.31
399.782	63.31
399.91	96.31
400.038	95.31
400.166	79.31
400.294	85.31
400.422	81.31
400.55	107.31
400.678	107.31
400.805	106.31
400.933	122.31
401.061	111.31
401.189	99.31
401.317	148.31
401.445	105.31
401.573	82.31
401.7	75.31
401.828	60.31
401.956	45.31
402.084	46.31
402.212	44.31
402.34	28.31
402.467	42.31
402.595	44.31
402.723	48.31
402.851	57.31
402.978	47.31
403.106	69.31
403.234	94.31
403.362	113.31
403.489	118.31
403.617	143.31
403.745	193.31
403.873	301.31
404	585.31
404.128	1438.31
404.256	3805.31
404.384	5038.31
404.511	5415.31
404.639	7196.31
404.767	11471.31
404.894	14603.31
405.022	4898.31
405.15	1311.31
405.277	426.31
405.405	241.31
405.533	144.31
405.66	116.31
405.788	65.31
405.916	72.31
406.043	55.31
406.171	56.31
406.299	73.31
406.426	61.31
406.554	55.31
406.681	72.31
406.809	45.31
406.937	58.31
407.064	65.31
407.192	128.31
407.319	299.31
407.447	521.31
407.574	527.31
407.702	630.31
407.83	843.31
407.957	1591.31
408.085	916.31
408.212	293.31
408.34	99.31
408.467	61.31
408.595	32.31
408.722	65.31
408.85	49.31
408.977	35.31
409.105	42.31
409.232	32.31
409.36	38.31
409.487	23.31
409.615	29.31
409.742	37.31
409.87	26.31
409.997	45.31
410.125	30.31
410.252	49.31
410.379	38.31
410.507	52.31
410.634	21.31
410.762	30.31
410.889	34.31
411.017	16.31
411.144	24.31
411.271	27.31
411.399	28.31
411.526	31.31
411.653	38.31
411.781	63.31
411.908	27.31
412.036	30.31
412.163	43.31
412.29	49.31
412.418	9.31
412.545	27.31
412.672	22.31
412.8	34.31
412.927	28.31
413.054	25.31
413.182	24.31
413.309	13.31
413.436	13.31
413.564	21.31
413.691	32.31
413.818	49.31
413.945	22.31
414.073	17.31
414.2	22.31
414.327	30.31
414.454	37.31
414.582	41.31
414.709	25.31
414.836	8.31
414.963	28.31
415.091	30.31
415.218	25.31
415.345	31.31
415.472	37.31
415.6	24.31
415.727	21.31
415.854	11.31
415.981	17.31
416.108	19.31
416.236	31.31
416.363	36.31
416.49	23.31
416.617	33.31
416.744	28.31
416.871	39.31
416.998	22.31
417.126	24.31
417.253	25.31
417.38	34.31
417.507	28.31
417.634	36.31
417.761	31.31
417.888	29.31
418.015	15.31
418.143	32.31
418.27	58.31
418.397	28.31
418.524	34.31
418.651	27.31
418.778	43.31
418.905	68.31
419.032	53.31
