Data from HighRes_mercury_15_13_11_07_2024_HR4C61891__95__15-14-32-685.txt Node

Date: Thu Nov 07 15:14:32 EST 2024
User: crc00042
Spectrometer: HR4C6189
Trigger mode: 4
Integration Time (sec): 1.000000E-1
Scans to average: 1
Electric dark correction enabled: true
Nonlinearity correction enabled: false
Boxcar width: 0
XAxis mode: Wavelengths
Number of Pixels in Spectrum: 3648
>>>>>Begin Spectral Data<<<<<
639.567	-29.54
639.602	-29.54
639.636	-29.54
639.67	-36.54
639.704	-15.54
639.738	1.46
639.773	4.46
639.807	-16.54
639.841	-6.54
639.875	-2.54
639.909	-3.54
639.943	-4.54
639.978	-16.54
640.012	18.46
640.046	3.46
640.08	13.46
640.114	15.46
640.148	-6.54
640.182	-4.54
640.217	3.46
640.251	23.46
640.285	18.46
640.319	-5.54
640.353	3.46
640.387	-2.54
640.421	9.46
640.455	4.46
640.49	2.46
640.524	4.46
640.558	10.46
640.592	17.46
640.626	6.46
640.66	13.46
640.694	-7.54
640.728	4.46
640.762	14.46
640.796	32.46
640.83	29.46
640.865	12.46
640.899	9.46
640.933	-5.54
640.967	3.46
641.001	5.46
641.035	14.46
641.069	7.46
641.103	-13.54
641.137	11.46
641.171	3.46
641.205	14.46
641.239	2.46
641.273	17.46
641.307	14.46
641.341	10.46
641.375	1.46
641.409	6.46
641.443	8.46
641.477	11.46
641.511	21.46
641.545	10.46
641.579	9.46
641.614	-11.54
641.648	0.46
641.682	-11.54
641.716	8.46
641.75	16.46
641.784	1.46
641.818	-4.54
641.852	7.46
641.886	12.46
641.919	35.46
641.953	18.46
641.987	-1.54
642.021	8.46
642.055	14.46
642.089	2.46
642.123	0.46
642.157	3.46
642.191	3.46
642.225	23.46
642.259	3.46
642.293	4.46
642.327	-1.54
642.361	0.46
642.395	8.46
642.429	15.46
642.463	29.46
642.497	22.46
642.531	10.46
642.565	4.46
642.599	23.46
642.633	15.46
642.666	19.46
642.7	12.46
642.734	20.46
642.768	-10.54
642.802	9.46
642.836	24.46
642.87	11.46
642.904	23.46
642.938	29.46
642.972	1.46
643.005	4.46
643.039	4.46
643.073	10.46
643.107	16.46
643.141	8.46
643.175	11.46
643.209	19.46
643.243	15.46
643.276	11.46
643.31	-1.54
643.344	6.46
643.378	-0.54
643.412	22.46
643.446	12.46
643.48	-1.54
643.513	17.46
643.547	23.46
643.581	-12.54
643.615	6.46
643.649	10.46
643.683	10.46
643.716	2.46
643.75	5.46
643.784	1.46
643.818	16.46
643.852	3.46
643.886	16.46
643.919	22.46
643.953	12.46
643.987	3.46
644.021	9.46
644.055	8.46
644.088	20.46
644.122	-0.54
644.156	-4.54
644.19	8.46
644.224	-3.54
644.257	24.46
644.291	10.46
644.325	11.46
644.359	-1.54
644.392	24.46
644.426	21.46
644.46	4.46
644.494	14.46
644.527	-2.54
644.561	6.46
644.595	22.46
644.629	-9.54
644.662	10.46
644.696	19.46
644.73	5.46
644.764	12.46
644.797	5.46
644.831	30.46
644.865	21.46
644.899	-0.54
644.932	27.46
644.966	9.46
645	7.46
645.033	12.46
645.067	-5.54
645.101	17.46
645.135	6.46
645.168	11.46
645.202	15.46
645.236	-0.54
645.269	9.46
645.303	11.46
645.337	-8.54
645.37	14.46
645.404	13.46
645.438	12.46
645.471	12.46
645.505	8.46
645.539	11.46
645.572	-3.54
645.606	6.46
645.64	-1.54
645.673	-21.54
645.707	24.46
645.741	-3.54
645.774	-21.54
645.808	1.46
645.842	-24.54
645.875	24.46
645.909	-5.54
645.943	-10.54
645.976	19.46
646.01	13.46
646.043	21.46
646.077	9.46
646.111	17.46
646.144	23.46
646.178	14.46
646.212	-7.54
646.245	3.46
646.279	6.46
646.312	11.46
646.346	19.46
646.38	-0.54
646.413	12.46
646.447	0.46
646.48	15.46
646.514	28.46
646.547	7.46
646.581	7.46
646.615	12.46
646.648	11.46
646.682	4.46
646.715	-5.54
646.749	6.46
646.782	0.46
646.816	-8.54
646.85	6.46
646.883	-8.54
646.917	-8.54
646.95	-14.54
646.984	8.46
647.017	1.46
647.051	11.46
647.084	16.46
647.118	-3.54
647.151	11.46
647.185	6.46
647.218	13.46
647.252	11.46
647.285	9.46
647.319	-1.54
647.353	5.46
647.386	16.46
647.42	15.46
647.453	8.46
647.487	13.46
647.52	11.46
647.553	11.46
647.587	19.46
647.62	5.46
647.654	14.46
647.687	4.46
647.721	16.46
647.754	15.46
647.788	-3.54
647.821	7.46
647.855	9.46
647.888	14.46
647.922	14.46
647.955	5.46
647.989	5.46
648.022	4.46
648.055	-0.54
648.089	4.46
648.122	19.46
648.156	5.46
648.189	0.46
648.223	1.46
648.256	26.46
648.29	12.46
648.323	12.46
648.356	20.46
648.39	6.46
648.423	13.46
648.457	8.46
648.49	27.46
648.523	-0.54
648.557	2.46
648.59	2.46
648.624	7.46
648.657	11.46
648.69	9.46
648.724	14.46
648.757	21.46
648.791	26.46
648.824	19.46
648.857	31.46
648.891	12.46
648.924	10.46
648.957	22.46
648.991	-3.54
649.024	17.46
649.057	10.46
649.091	-8.54
649.124	26.46
649.158	9.46
649.191	6.46
649.224	-8.54
649.258	6.46
649.291	-1.54
649.324	8.46
649.358	6.46
649.391	13.46
649.424	15.46
649.458	4.46
649.491	6.46
649.524	6.46
649.557	-5.54
649.591	2.46
649.624	9.46
649.657	-4.54
649.691	3.46
649.724	1.46
649.757	-1.54
649.791	-6.54
649.824	12.46
649.857	0.46
649.89	11.46
649.924	8.46
649.957	13.46
649.99	-14.54
650.023	4.46
650.057	-1.54
650.09	6.46
650.123	-11.54
650.157	15.46
650.19	40.46
650.223	9.46
650.256	17.46
650.29	1.46
650.323	6.46
650.356	1.46
650.389	-2.54
650.423	-8.54
650.456	8.46
650.489	1.46
650.522	7.46
650.555	27.46
650.589	27.46
650.622	-0.54
650.655	29.46
650.688	15.46
650.721	8.46
650.755	-16.54
650.788	9.46
650.821	11.46
650.854	16.46
650.887	15.46
650.921	16.46
650.954	-1.54
650.987	-1.54
651.02	-8.54
651.053	-23.54
651.087	-13.54
651.12	23.46
651.153	12.46
651.186	9.46
651.219	-8.54
651.252	23.46
651.286	9.46
651.319	16.46
651.352	17.46
651.385	1.46
651.418	10.46
651.451	15.46
651.484	-0.54
651.518	8.46
651.551	29.46
651.584	13.46
651.617	24.46
651.65	23.46
651.683	24.46
651.716	4.46
651.749	6.46
651.783	3.46
651.816	4.46
651.849	14.46
651.882	8.46
651.915	-8.54
651.948	16.46
651.981	-1.54
652.014	-7.54
652.047	4.46
652.08	-7.54
652.114	19.46
652.147	8.46
652.18	5.46
652.213	26.46
652.246	16.46
652.279	5.46
652.312	17.46
652.345	6.46
652.378	9.46
652.411	5.46
652.444	22.46
652.477	13.46
652.51	1.46
652.543	-1.54
652.576	11.46
652.609	-5.54
652.642	0.46
652.675	15.46
652.709	10.46
652.742	15.46
652.775	9.46
652.808	8.46
652.841	6.46
652.874	11.46
652.907	9.46
652.94	-1.54
652.973	-5.54
653.006	-11.54
653.039	4.46
653.072	16.46
653.105	-1.54
653.138	-5.54
653.171	8.46
653.204	4.46
653.237	3.46
653.27	-9.54
653.303	7.46
653.336	12.46
653.368	2.46
653.401	8.46
653.434	-6.54
653.467	4.46
653.5	2.46
653.533	0.46
653.566	4.46
653.599	17.46
653.632	7.46
653.665	4.46
653.698	-18.54
653.731	-0.54
653.764	25.46
653.797	14.46
653.83	20.46
653.863	17.46
653.896	3.46
653.929	-0.54
653.961	-2.54
653.994	12.46
654.027	-11.54
654.06	20.46
654.093	11.46
654.126	5.46
654.159	9.46
654.192	8.46
654.225	-3.54
654.258	12.46
654.29	4.46
654.323	22.46
654.356	-6.54
654.389	1.46
654.422	0.46
654.455	10.46
654.488	10.46
654.521	11.46
654.553	5.46
654.586	14.46
654.619	7.46
654.652	8.46
654.685	18.46
654.718	16.46
654.751	17.46
654.783	12.46
654.816	14.46
654.849	12.46
654.882	15.46
654.915	-15.54
654.948	4.46
654.98	8.46
655.013	7.46
655.046	18.46
655.079	-4.54
655.112	1.46
655.144	-2.54
655.177	4.46
655.21	12.46
655.243	15.46
655.276	13.46
655.308	-2.54
655.341	1.46
655.374	-4.54
655.407	-11.54
655.44	-2.54
655.472	25.46
655.505	26.46
655.538	-1.54
655.571	1.46
655.603	0.46
655.636	7.46
655.669	28.46
655.702	-4.54
655.734	-3.54
655.767	13.46
655.8	4.46
655.833	7.46
655.865	13.46
655.898	20.46
655.931	5.46
655.964	0.46
655.996	6.46
656.029	28.46
656.062	7.46
656.095	14.46
656.127	8.46
656.16	18.46
656.193	-1.54
656.225	8.46
656.258	15.46
656.291	4.46
656.324	8.46
656.356	3.46
656.389	17.46
656.422	13.46
656.454	-11.54
656.487	7.46
656.52	7.46
656.552	8.46
656.585	5.46
656.618	23.46
656.65	11.46
656.683	7.46
656.716	12.46
656.748	0.46
656.781	-3.54
656.814	-4.54
656.846	7.46
656.879	6.46
656.912	1.46
656.944	-12.54
656.977	-3.54
657.01	-11.54
657.042	3.46
657.075	12.46
657.108	-2.54
657.14	7.46
657.173	7.46
657.205	31.46
657.238	29.46
657.271	16.46
657.303	-4.54
657.336	-3.54
657.369	-6.54
657.401	2.46
657.434	10.46
657.466	6.46
657.499	12.46
657.532	2.46
657.564	6.46
657.597	13.46
657.629	0.46
657.662	5.46
657.694	11.46
657.727	-1.54
657.76	11.46
657.792	1.46
657.825	-2.54
657.857	13.46
657.89	13.46
657.922	15.46
657.955	11.46
657.987	12.46
658.02	19.46
658.053	14.46
658.085	29.46
658.118	5.46
658.15	7.46
658.183	11.46
658.215	11.46
658.248	-3.54
658.28	0.46
658.313	8.46
658.345	9.46
658.378	21.46
658.41	13.46
658.443	12.46
658.475	11.46
658.508	-2.54
658.54	14.46
658.573	-8.54
658.605	11.46
658.638	9.46
658.67	8.46
658.703	18.46
658.735	7.46
658.768	5.46
658.8	-9.54
658.833	15.46
658.865	7.46
658.898	-2.54
658.93	20.46
658.963	2.46
658.995	-8.54
659.028	8.46
659.06	9.46
659.092	11.46
659.125	-5.54
659.157	24.46
659.19	12.46
659.222	-7.54
659.255	7.46
659.287	13.46
659.32	-2.54
659.352	3.46
659.384	26.46
659.417	1.46
659.449	8.46
659.482	13.46
659.514	-9.54
659.546	-8.54
659.579	-7.54
659.611	9.46
659.644	8.46
659.676	10.46
659.708	-0.54
659.741	1.46
659.773	28.46
659.806	10.46
659.838	18.46
659.87	-2.54
659.903	-4.54
659.935	0.46
659.967	18.46
660	13.46
660.032	-6.54
660.065	11.46
660.097	-2.54
660.129	8.46
660.162	-3.54
660.194	9.46
660.226	6.46
660.259	0.46
660.291	-6.54
660.323	-0.54
660.356	5.46
660.388	11.46
660.42	20.46
660.453	9.46
660.485	14.46
660.517	15.46
660.55	26.46
660.582	5.46
660.614	5.46
660.647	2.46
660.679	-6.54
660.711	16.46
660.743	10.46
660.776	-11.54
660.808	4.46
660.84	-19.54
660.873	13.46
660.905	9.46
660.937	-5.54
660.969	7.46
661.002	3.46
661.034	17.46
661.066	12.46
661.099	25.46
661.131	19.46
661.163	7.46
661.195	17.46
661.228	17.46
661.26	-8.54
661.292	-4.54
661.324	11.46
661.357	10.46
661.389	4.46
661.421	14.46
661.453	6.46
661.485	0.46
661.518	4.46
661.55	-6.54
661.582	9.46
661.614	5.46
661.647	13.46
661.679	-3.54
661.711	6.46
661.743	0.46
661.775	16.46
661.808	34.46
661.84	-14.54
661.872	15.46
661.904	5.46
661.936	7.46
661.969	-16.54
662.001	-1.54
662.033	0.46
662.065	5.46
662.097	18.46
662.129	2.46
662.162	-13.54
662.194	4.46
662.226	7.46
662.258	16.46
662.29	10.46
662.322	4.46
662.355	-13.54
662.387	20.46
662.419	18.46
662.451	14.46
662.483	9.46
662.515	3.46
662.547	10.46
662.58	12.46
662.612	9.46
662.644	-3.54
662.676	8.46
662.708	24.46
662.74	9.46
662.772	6.46
662.804	7.46
662.836	7.46
662.869	-1.54
662.901	3.46
662.933	-4.54
662.965	21.46
662.997	15.46
663.029	7.46
663.061	7.46
663.093	15.46
663.125	15.46
663.157	-5.54
663.189	9.46
663.221	30.46
663.254	9.46
663.286	7.46
663.318	-1.54
663.35	4.46
663.382	10.46
663.414	11.46
663.446	20.46
663.478	3.46
663.51	40.46
663.542	7.46
663.574	7.46
663.606	17.46
663.638	-9.54
663.67	15.46
663.702	1.46
663.734	1.46
663.766	14.46
663.798	14.46
663.83	11.46
663.862	13.46
663.894	16.46
663.926	3.46
663.958	-3.54
663.99	-3.54
664.022	2.46
664.054	14.46
664.086	-7.54
664.118	-9.54
664.15	9.46
664.182	7.46
664.214	-0.54
664.246	-3.54
664.278	6.46
664.31	20.46
664.342	16.46
664.374	7.46
664.406	15.46
664.438	12.46
664.47	16.46
664.502	-1.54
664.534	2.46
664.566	11.46
664.598	20.46
664.63	3.46
664.662	5.46
664.693	14.46
664.725	12.46
664.757	22.46
664.789	10.46
664.821	-1.54
664.853	23.46
664.885	5.46
664.917	6.46
664.949	15.46
664.981	16.46
665.013	2.46
665.045	1.46
665.076	-0.54
665.108	11.46
665.14	-7.54
665.172	2.46
665.204	1.46
665.236	11.46
665.268	8.46
665.3	7.46
665.331	-2.54
665.363	9.46
665.395	-4.54
665.427	-9.54
665.459	17.46
665.491	-8.54
665.523	-5.54
665.555	7.46
665.586	7.46
665.618	-11.54
665.65	-12.54
665.682	9.46
665.714	7.46
665.746	8.46
665.777	17.46
665.809	7.46
665.841	26.46
665.873	25.46
665.905	13.46
665.937	23.46
665.968	8.46
666	-3.54
666.032	14.46
666.064	6.46
666.096	11.46
666.127	10.46
666.159	1.46
666.191	22.46
666.223	22.46
666.255	31.46
666.286	7.46
666.318	-11.54
666.35	22.46
666.382	3.46
666.413	-4.54
666.445	-4.54
666.477	-1.54
666.509	3.46
666.54	8.46
666.572	6.46
666.604	20.46
666.636	18.46
666.667	15.46
666.699	22.46
666.731	-5.54
666.763	-3.54
666.794	-6.54
666.826	11.46
666.858	-5.54
666.89	32.46
666.921	2.46
666.953	9.46
666.985	12.46
667.017	34.46
667.048	6.46
667.08	-1.54
667.112	10.46
667.143	8.46
667.175	14.46
667.207	6.46
667.238	15.46
667.27	14.46
667.302	6.46
667.334	-4.54
667.365	39.46
667.397	-5.54
667.429	3.46
667.46	11.46
667.492	8.46
667.524	-4.54
667.555	-20.54
667.587	1.46
667.619	8.46
667.65	-6.54
667.682	4.46
667.714	10.46
667.745	6.46
667.777	-3.54
667.808	5.46
667.84	15.46
667.872	11.46
667.903	33.46
667.935	3.46
667.967	12.46
667.998	7.46
668.03	-2.54
668.061	17.46
668.093	14.46
668.125	18.46
668.156	9.46
668.188	-5.54
668.22	2.46
668.251	12.46
668.283	-0.54
668.314	10.46
668.346	6.46
668.377	25.46
668.409	17.46
668.441	28.46
668.472	22.46
668.504	19.46
668.535	16.46
668.567	5.46
668.599	20.46
668.63	-16.54
668.662	0.46
668.693	12.46
668.725	5.46
668.756	24.46
668.788	7.46
668.819	-3.54
668.851	13.46
668.882	7.46
668.914	-4.54
668.946	3.46
668.977	4.46
669.009	4.46
669.04	2.46
669.072	15.46
669.103	17.46
669.135	16.46
669.166	16.46
669.198	9.46
669.229	8.46
669.261	9.46
669.292	-3.54
669.324	17.46
669.355	23.46
669.387	3.46
669.418	12.46
669.45	-2.54
669.481	7.46
669.513	14.46
669.544	-0.54
669.576	-7.54
669.607	22.46
669.639	9.46
669.67	-3.54
669.701	5.46
669.733	-1.54
669.764	11.46
669.796	8.46
669.827	-16.54
669.859	3.46
669.89	15.46
669.922	17.46
669.953	-4.54
669.985	7.46
670.016	14.46
670.047	11.46
670.079	4.46
670.11	8.46
670.142	6.46
670.173	9.46
670.204	5.46
670.236	11.46
670.267	15.46
670.299	18.46
670.33	16.46
670.362	10.46
670.393	-6.54
670.424	7.46
670.456	-4.54
670.487	7.46
670.518	11.46
670.55	5.46
670.581	11.46
670.613	10.46
670.644	0.46
670.675	-15.54
670.707	7.46
670.738	6.46
670.769	16.46
670.801	-4.54
670.832	5.46
670.864	0.46
670.895	13.46
670.926	4.46
670.958	-1.54
670.989	10.46
671.02	9.46
671.052	10.46
671.083	12.46
671.114	-4.54
671.146	12.46
671.177	11.46
671.208	-19.54
671.24	10.46
671.271	25.46
671.302	16.46
671.333	25.46
671.365	-3.54
671.396	3.46
671.427	14.46
671.459	7.46
671.49	20.46
671.521	15.46
671.553	7.46
671.584	4.46
671.615	-12.54
671.646	12.46
671.678	14.46
671.709	-10.54
671.74	-12.54
671.771	-0.54
671.803	16.46
671.834	3.46
671.865	11.46
671.896	11.46
671.928	-1.54
671.959	-10.54
671.99	2.46
672.021	6.46
672.053	7.46
672.084	17.46
672.115	2.46
672.146	7.46
672.178	-6.54
672.209	0.46
672.24	7.46
672.271	30.46
672.303	18.46
672.334	-10.54
672.365	-11.54
672.396	5.46
672.427	3.46
672.459	18.46
672.49	19.46
672.521	17.46
672.552	17.46
672.583	11.46
672.615	7.46
672.646	16.46
672.677	-7.54
672.708	-3.54
672.739	8.46
672.77	25.46
672.802	19.46
672.833	6.46
672.864	-0.54
672.895	-6.54
672.926	-9.54
672.957	-1.54
672.989	13.46
673.02	-0.54
673.051	-2.54
673.082	21.46
673.113	6.46
673.144	15.46
673.175	15.46
673.206	3.46
673.238	-8.54
673.269	6.46
673.3	-6.54
673.331	19.46
673.362	3.46
673.393	7.46
673.424	27.46
673.455	34.46
673.487	11.46
673.518	9.46
673.549	-1.54
673.58	-12.54
673.611	5.46
673.642	4.46
673.673	-17.54
673.704	7.46
673.735	7.46
673.766	-10.54
673.797	-10.54
673.828	3.46
673.86	-18.54
673.891	-24.54
673.922	-6.54
673.953	-1.54
673.984	16.46
674.015	16.46
674.046	8.46
674.077	5.46
674.108	-11.54
674.139	21.46
674.17	4.46
674.201	8.46
674.232	4.46
674.263	4.46
674.294	5.46
674.325	-8.54
674.356	15.46
674.387	7.46
674.418	4.46
674.449	-9.54
674.48	-5.54
674.511	4.46
674.542	6.46
674.573	-5.54
674.604	11.46
674.635	12.46
674.666	11.46
674.697	3.46
674.728	8.46
674.759	6.46
674.79	-1.54
674.821	-4.54
674.852	2.46
674.883	-9.54
674.914	9.46
674.945	-10.54
674.976	-17.54
675.007	-6.54
675.038	-0.54
675.069	-8.54
675.1	3.46
675.131	11.46
675.162	13.46
675.193	7.46
675.224	-1.54
675.254	0.46
675.285	12.46
675.316	5.46
675.347	13.46
675.378	4.46
675.409	-0.54
675.44	20.46
675.471	13.46
675.502	-6.54
675.533	-15.54
675.564	4.46
675.595	13.46
675.625	24.46
675.656	18.46
675.687	7.46
675.718	-9.54
675.749	-2.54
675.78	-3.54
675.811	-1.54
675.842	26.46
675.873	15.46
675.903	-0.54
675.934	-8.54
675.965	-3.54
675.996	-28.54
676.027	-8.54
676.058	-5.54
676.089	-11.54
676.119	8.46
676.15	-7.54
676.181	6.46
676.212	-2.54
676.243	16.46
676.274	-2.54
676.304	21.46
676.335	-1.54
676.366	16.46
676.397	-0.54
676.428	9.46
676.459	20.46
676.489	7.46
676.52	4.46
676.551	-4.54
676.582	2.46
676.613	11.46
676.643	-1.54
676.674	14.46
676.705	5.46
676.736	20.46
676.767	15.46
676.797	17.46
676.828	6.46
676.859	6.46
676.89	7.46
676.92	21.46
676.951	14.46
676.982	13.46
677.013	10.46
677.044	21.46
677.074	20.46
677.105	0.46
677.136	24.46
677.167	4.46
677.197	6.46
677.228	4.46
677.259	-4.54
677.289	3.46
677.32	-10.54
677.351	-6.54
677.382	-2.54
677.412	6.46
677.443	2.46
677.474	16.46
677.505	7.46
677.535	19.46
677.566	12.46
677.597	-6.54
677.627	-1.54
677.658	11.46
677.689	16.46
677.72	0.46
677.75	2.46
677.781	8.46
677.812	6.46
677.842	14.46
677.873	2.46
677.904	13.46
677.934	9.46
677.965	-0.54
677.996	-19.54
678.026	6.46
678.057	7.46
678.088	3.46
678.118	9.46
678.149	3.46
678.18	11.46
678.21	19.46
678.241	29.46
678.272	13.46
678.302	-2.54
678.333	9.46
678.363	10.46
678.394	27.46
678.425	5.46
678.455	3.46
678.486	26.46
678.517	9.46
678.547	11.46
678.578	3.46
678.608	0.46
678.639	3.46
678.67	-5.54
678.7	0.46
678.731	-1.54
678.761	14.46
678.792	12.46
678.823	6.46
678.853	-0.54
678.884	-3.54
678.914	17.46
678.945	7.46
678.975	-5.54
679.006	15.46
679.037	-4.54
679.067	36.46
679.098	0.46
679.128	-6.54
679.159	-3.54
679.189	11.46
679.22	9.46
679.25	13.46
679.281	0.46
679.312	-2.54
679.342	17.46
679.373	26.46
679.403	-4.54
679.434	14.46
679.464	0.46
679.495	9.46
679.525	3.46
679.556	6.46
679.586	8.46
679.617	11.46
679.647	3.46
679.678	0.46
679.708	-7.54
679.739	5.46
679.769	-3.54
679.8	-2.54
679.83	14.46
679.861	-6.54
679.891	-0.54
679.922	9.46
679.952	12.46
679.983	25.46
680.013	9.46
680.044	12.46
680.074	4.46
680.105	14.46
680.135	5.46
680.165	19.46
680.196	3.46
680.226	14.46
680.257	3.46
680.287	1.46
680.318	2.46
680.348	10.46
680.379	18.46
680.409	6.46
680.439	6.46
680.47	2.46
680.5	8.46
680.531	5.46
680.561	2.46
680.592	-0.54
680.622	15.46
680.652	16.46
680.683	35.46
680.713	10.46
680.744	7.46
680.774	6.46
680.804	27.46
680.835	5.46
680.865	5.46
680.896	15.46
680.926	9.46
680.956	19.46
680.987	15.46
681.017	-0.54
681.047	-6.54
681.078	-6.54
681.108	-8.54
681.139	-10.54
681.169	-15.54
681.199	8.46
681.23	4.46
681.26	-9.54
681.29	13.46
681.321	0.46
681.351	23.46
681.381	-3.54
681.412	7.46
681.442	10.46
681.472	23.46
681.503	24.46
681.533	-14.54
681.563	10.46
681.594	2.46
681.624	5.46
681.654	10.46
681.685	12.46
681.715	21.46
681.745	13.46
681.775	6.46
681.806	-10.54
681.836	14.46
681.866	-4.54
681.897	5.46
681.927	15.46
681.957	2.46
681.987	3.46
682.018	-11.54
682.048	3.46
682.078	11.46
682.109	23.46
682.139	5.46
682.169	6.46
682.199	-4.54
682.23	2.46
682.26	8.46
682.29	20.46
682.32	11.46
682.351	16.46
682.381	8.46
682.411	3.46
682.441	-1.54
682.472	9.46
682.502	10.46
682.532	-9.54
682.562	7.46
682.592	12.46
682.623	17.46
682.653	0.46
682.683	4.46
682.713	15.46
682.743	11.46
682.774	3.46
682.804	-0.54
682.834	20.46
