Data from HighRes_mercury_15_13_11_07_2024_HR4C61891__0__15-14-23-186.txt Node

Date: Thu Nov 07 15:14:23 EST 2024
User: crc00042
Spectrometer: HR4C6189
Trigger mode: 4
Integration Time (sec): 1.000000E-1
Scans to average: 1
Electric dark correction enabled: true
Nonlinearity correction enabled: false
Boxcar width: 0
XAxis mode: Wavelengths
Number of Pixels in Spectrum: 3648
>>>>>Begin Spectral Data<<<<<
639.567	-48.92
639.602	-48.92
639.636	-48.92
639.67	-39.92
639.704	-1.92
639.738	6.08
639.773	6.08
639.807	-11.92
639.841	-7.92
639.875	7.08
639.909	-4.92
639.943	-18.92
639.978	-3.92
640.012	5.08
640.046	18.08
640.08	8.08
640.114	7.08
640.148	-9.92
640.182	-6.92
640.217	10.08
640.251	16.08
640.285	7.08
640.319	3.08
640.353	6.08
640.387	1.08
640.421	4.08
640.455	4.08
640.49	-12.92
640.524	5.08
640.558	9.08
640.592	7.08
640.626	12.08
640.66	12.08
640.694	-12.92
640.728	15.08
640.762	12.08
640.796	9.08
640.83	11.08
640.865	-3.92
640.899	2.08
640.933	13.08
640.967	14.08
641.001	17.08
641.035	5.08
641.069	7.08
641.103	2.08
641.137	18.08
641.171	-0.92
641.205	13.08
641.239	2.08
641.273	21.08
641.307	8.08
641.341	1.08
641.375	4.08
641.409	6.08
641.443	-4.92
641.477	14.08
641.511	16.08
641.545	10.08
641.579	5.08
641.614	17.08
641.648	29.08
641.682	-18.92
641.716	6.08
641.75	27.08
641.784	2.08
641.818	10.08
641.852	25.08
641.886	14.08
641.919	34.08
641.953	5.08
641.987	-13.92
642.021	6.08
642.055	10.08
642.089	8.08
642.123	-0.92
642.157	8.08
642.191	-4.92
642.225	23.08
642.259	6.08
642.293	6.08
642.327	1.08
642.361	5.08
642.395	22.08
642.429	15.08
642.463	19.08
642.497	22.08
642.531	1.08
642.565	-11.92
642.599	-1.92
642.633	-0.92
642.666	20.08
642.7	13.08
642.734	8.08
642.768	3.08
642.802	18.08
642.836	11.08
642.87	14.08
642.904	6.08
642.938	0.08
642.972	6.08
643.005	3.08
643.039	33.08
643.073	24.08
643.107	1.08
643.141	8.08
643.175	7.08
643.209	7.08
643.243	5.08
643.276	11.08
643.31	-0.92
643.344	19.08
643.378	10.08
643.412	31.08
643.446	6.08
643.48	7.08
643.513	4.08
643.547	12.08
643.581	9.08
643.615	20.08
643.649	13.08
643.683	3.08
643.716	10.08
643.75	7.08
643.784	-4.92
643.818	20.08
643.852	18.08
643.886	8.08
643.919	16.08
643.953	10.08
643.987	5.08
644.021	9.08
644.055	7.08
644.088	6.08
644.122	4.08
644.156	-0.92
644.19	14.08
644.224	14.08
644.257	6.08
644.291	0.08
644.325	26.08
644.359	18.08
644.392	26.08
644.426	26.08
644.46	4.08
644.494	17.08
644.527	0.08
644.561	12.08
644.595	17.08
644.629	2.08
644.662	-3.92
644.696	5.08
644.73	13.08
644.764	9.08
644.797	18.08
644.831	19.08
644.865	27.08
644.899	10.08
644.932	25.08
644.966	1.08
645	8.08
645.033	24.08
645.067	16.08
645.101	21.08
645.135	14.08
645.168	18.08
645.202	-1.92
645.236	-1.92
645.269	4.08
645.303	5.08
645.337	-10.92
645.37	-1.92
645.404	5.08
645.438	21.08
645.471	6.08
645.505	7.08
645.539	3.08
645.572	5.08
645.606	2.08
645.64	10.08
645.673	17.08
645.707	13.08
645.741	10.08
645.774	-3.92
645.808	13.08
645.842	-5.92
645.875	8.08
645.909	3.08
645.943	-0.92
645.976	24.08
646.01	15.08
646.043	12.08
646.077	10.08
646.111	7.08
646.144	22.08
646.178	-2.92
646.212	-4.92
646.245	-6.92
646.279	4.08
646.312	16.08
646.346	21.08
646.38	3.08
646.413	10.08
646.447	12.08
646.48	2.08
646.514	9.08
646.547	3.08
646.581	-7.92
646.615	-0.92
646.648	14.08
646.682	19.08
646.715	2.08
646.749	14.08
646.782	-2.92
646.816	2.08
646.85	-0.92
646.883	8.08
646.917	11.08
646.95	21.08
646.984	9.08
647.017	4.08
647.051	1.08
647.084	28.08
647.118	-15.92
647.151	8.08
647.185	10.08
647.218	-2.92
647.252	19.08
647.285	-10.92
647.319	-16.92
647.353	9.08
647.386	14.08
647.42	17.08
647.453	5.08
647.487	8.08
647.52	1.08
647.553	4.08
647.587	-1.92
647.62	15.08
647.654	16.08
647.687	20.08
647.721	18.08
647.754	16.08
647.788	5.08
647.821	-2.92
647.855	6.08
647.888	22.08
647.922	24.08
647.955	20.08
647.989	8.08
648.022	-6.92
648.055	13.08
648.089	10.08
648.122	18.08
648.156	-3.92
648.189	4.08
648.223	22.08
648.256	25.08
648.29	17.08
648.323	2.08
648.356	12.08
648.39	7.08
648.423	4.08
648.457	-3.92
648.49	6.08
648.523	8.08
648.557	4.08
648.59	-0.92
648.624	10.08
648.657	13.08
648.69	19.08
648.724	22.08
648.757	14.08
648.791	3.08
648.824	17.08
648.857	13.08
648.891	6.08
648.924	7.08
648.957	23.08
648.991	9.08
649.024	16.08
649.057	6.08
649.091	6.08
649.124	11.08
649.158	16.08
649.191	21.08
649.224	12.08
649.258	17.08
649.291	8.08
649.324	2.08
649.358	10.08
649.391	10.08
649.424	3.08
649.458	9.08
649.491	4.08
649.524	-5.92
649.557	-14.92
649.591	-13.92
649.624	20.08
649.657	-3.92
649.691	-4.92
649.724	11.08
649.757	7.08
649.791	8.08
649.824	24.08
649.857	15.08
649.89	8.08
649.924	-7.92
649.957	9.08
649.99	-2.92
650.023	3.08
650.057	2.08
650.09	16.08
650.123	-1.92
650.157	10.08
650.19	10.08
650.223	-2.92
650.256	-20.92
650.29	-9.92
650.323	12.08
650.356	11.08
650.389	4.08
650.423	7.08
650.456	12.08
650.489	12.08
650.522	4.08
650.555	9.08
650.589	4.08
650.622	5.08
650.655	19.08
650.688	5.08
650.721	5.08
650.755	16.08
650.788	13.08
650.821	-1.92
650.854	-1.92
650.887	7.08
650.921	-1.92
650.954	-11.92
650.987	5.08
651.02	20.08
651.053	-0.92
651.087	-3.92
651.12	31.08
651.153	16.08
651.186	-5.92
651.219	6.08
651.252	20.08
651.286	22.08
651.319	-2.92
651.352	4.08
651.385	11.08
651.418	3.08
651.451	22.08
651.484	7.08
651.518	3.08
651.551	30.08
651.584	3.08
651.617	34.08
651.65	23.08
651.683	18.08
651.716	-9.92
651.749	4.08
651.783	12.08
651.816	13.08
651.849	-1.92
651.882	-6.92
651.915	-10.92
651.948	-5.92
651.981	-9.92
652.014	-0.92
652.047	-6.92
652.08	-1.92
652.114	4.08
652.147	-8.92
652.18	2.08
652.213	24.08
652.246	-9.92
652.279	-1.92
652.312	0.08
652.345	8.08
652.378	15.08
652.411	28.08
652.444	10.08
652.477	6.08
652.51	-2.92
652.543	-7.92
652.576	6.08
652.609	-5.92
652.642	-7.92
652.675	21.08
652.709	3.08
652.742	3.08
652.775	1.08
652.808	-5.92
652.841	1.08
652.874	5.08
652.907	3.08
652.94	-5.92
652.973	-10.92
653.006	-14.92
653.039	-4.92
653.072	14.08
653.105	-5.92
653.138	-10.92
653.171	-17.92
653.204	2.08
653.237	11.08
653.27	4.08
653.303	18.08
653.336	18.08
653.368	1.08
653.401	5.08
653.434	-9.92
653.467	9.08
653.5	2.08
653.533	1.08
653.566	6.08
653.599	0.08
653.632	3.08
653.665	14.08
653.698	-5.92
653.731	-12.92
653.764	25.08
653.797	13.08
653.83	19.08
653.863	7.08
653.896	-14.92
653.929	-1.92
653.961	8.08
653.994	5.08
654.027	-10.92
654.06	27.08
654.093	4.08
654.126	7.08
654.159	-6.92
654.192	2.08
654.225	4.08
654.258	4.08
654.29	8.08
654.323	0.08
654.356	1.08
654.389	20.08
654.422	9.08
654.455	7.08
654.488	-5.92
654.521	-8.92
654.553	-1.92
654.586	12.08
654.619	-1.92
654.652	-4.92
654.685	2.08
654.718	14.08
654.751	26.08
654.783	9.08
654.816	30.08
654.849	5.08
654.882	0.08
654.915	-5.92
654.948	1.08
654.98	4.08
655.013	4.08
655.046	-5.92
655.079	-8.92
655.112	10.08
655.144	-9.92
655.177	-7.92
655.21	6.08
655.243	0.08
655.276	1.08
655.308	-5.92
655.341	1.08
655.374	22.08
655.407	-6.92
655.44	-14.92
655.472	12.08
655.505	16.08
655.538	16.08
655.571	18.08
655.603	-6.92
655.636	-1.92
655.669	-3.92
655.702	-13.92
655.734	-2.92
655.767	16.08
655.8	8.08
655.833	8.08
655.865	8.08
655.898	6.08
655.931	3.08
655.964	-5.92
655.996	-0.92
656.029	8.08
656.062	-2.92
656.095	-4.92
656.127	-8.92
656.16	11.08
656.193	5.08
656.225	13.08
656.258	24.08
656.291	1.08
656.324	-6.92
656.356	-2.92
656.389	8.08
656.422	20.08
656.454	-15.92
656.487	-7.92
656.52	17.08
656.552	9.08
656.585	-8.92
656.618	15.08
656.65	15.08
656.683	0.08
656.716	13.08
656.748	-0.92
656.781	-4.92
656.814	-6.92
656.846	17.08
656.879	-16.92
656.912	-0.92
656.944	-9.92
656.977	-6.92
657.01	-2.92
657.042	3.08
657.075	7.08
657.108	3.08
657.14	4.08
657.173	18.08
657.205	26.08
657.238	13.08
657.271	0.08
657.303	-8.92
657.336	28.08
657.369	5.08
657.401	4.08
657.434	4.08
657.466	0.08
657.499	0.08
657.532	-0.92
657.564	3.08
657.597	2.08
657.629	-4.92
657.662	-8.92
657.694	17.08
657.727	-13.92
657.76	19.08
657.792	-0.92
657.825	2.08
657.857	5.08
657.89	4.08
657.922	-0.92
657.955	-12.92
657.987	9.08
658.02	34.08
658.053	11.08
658.085	15.08
658.118	0.08
658.15	19.08
658.183	28.08
658.215	6.08
658.248	0.08
658.28	6.08
658.313	10.08
658.345	6.08
658.378	-3.92
658.41	10.08
658.443	-9.92
658.475	9.08
658.508	8.08
658.54	7.08
658.573	-1.92
658.605	10.08
658.638	-0.92
658.67	5.08
658.703	6.08
658.735	-10.92
658.768	9.08
658.8	7.08
658.833	25.08
658.865	17.08
658.898	7.08
658.93	4.08
658.963	-7.92
658.995	-5.92
659.028	14.08
659.06	7.08
659.092	8.08
659.125	6.08
659.157	16.08
659.19	-2.92
659.222	2.08
659.255	-1.92
659.287	4.08
659.32	10.08
659.352	3.08
659.384	2.08
659.417	1.08
659.449	4.08
659.482	19.08
659.514	-6.92
659.546	-3.92
659.579	-22.92
659.611	7.08
659.644	8.08
659.676	-10.92
659.708	-8.92
659.741	3.08
659.773	8.08
659.806	6.08
659.838	3.08
659.87	11.08
659.903	6.08
659.935	11.08
659.967	13.08
660	6.08
660.032	-1.92
660.065	16.08
660.097	9.08
660.129	13.08
660.162	-6.92
660.194	6.08
660.226	2.08
660.259	7.08
660.291	6.08
660.323	5.08
660.356	15.08
660.388	11.08
660.42	-2.92
660.453	5.08
660.485	23.08
660.517	14.08
660.55	27.08
660.582	18.08
660.614	22.08
660.647	-1.92
660.679	-25.92
660.711	12.08
660.743	-9.92
660.776	-11.92
660.808	1.08
660.84	-3.92
660.873	3.08
660.905	1.08
660.937	11.08
660.969	-0.92
661.002	7.08
661.034	28.08
661.066	4.08
661.099	8.08
661.131	16.08
661.163	3.08
661.195	4.08
661.228	11.08
661.26	3.08
661.292	12.08
661.324	1.08
661.357	-9.92
661.389	3.08
661.421	7.08
661.453	-5.92
661.485	-7.92
661.518	5.08
661.55	0.08
661.582	-2.92
661.614	9.08
661.647	2.08
661.679	-1.92
661.711	6.08
661.743	8.08
661.775	9.08
661.808	26.08
661.84	0.08
661.872	3.08
661.904	2.08
661.936	7.08
661.969	5.08
662.001	-3.92
662.033	1.08
662.065	10.08
662.097	30.08
662.129	13.08
662.162	-14.92
662.194	9.08
662.226	-2.92
662.258	3.08
662.29	13.08
662.322	-14.92
662.355	-11.92
662.387	28.08
662.419	9.08
662.451	30.08
662.483	27.08
662.515	1.08
662.547	19.08
662.58	2.08
662.612	-1.92
662.644	-6.92
662.676	-0.92
662.708	35.08
662.74	7.08
662.772	14.08
662.804	-3.92
662.836	13.08
662.869	-6.92
662.901	10.08
662.933	12.08
662.965	5.08
662.997	22.08
663.029	2.08
663.061	19.08
663.093	-1.92
663.125	1.08
663.157	19.08
663.189	9.08
663.221	32.08
663.254	11.08
663.286	14.08
663.318	14.08
663.35	13.08
663.382	5.08
663.414	16.08
663.446	10.08
663.478	-10.92
663.51	25.08
663.542	-2.92
663.574	5.08
663.606	8.08
663.638	-6.92
663.67	-2.92
663.702	5.08
663.734	1.08
663.766	7.08
663.798	2.08
663.83	12.08
663.862	21.08
663.894	10.08
663.926	-6.92
663.958	22.08
663.99	20.08
664.022	2.08
664.054	9.08
664.086	2.08
664.118	-1.92
664.15	-6.92
664.182	-4.92
664.214	-13.92
664.246	9.08
664.278	5.08
664.31	29.08
664.342	5.08
664.374	14.08
664.406	-12.92
664.438	-0.92
664.47	29.08
664.502	9.08
664.534	7.08
664.566	-9.92
664.598	11.08
664.63	-14.92
664.662	15.08
664.693	9.08
664.725	-3.92
664.757	8.08
664.789	-10.92
664.821	2.08
664.853	22.08
664.885	15.08
664.917	6.08
664.949	14.08
664.981	12.08
665.013	21.08
665.045	-5.92
665.076	11.08
665.108	19.08
665.14	10.08
665.172	12.08
665.204	-1.92
665.236	4.08
665.268	22.08
665.3	14.08
665.331	4.08
665.363	14.08
665.395	0.08
665.427	2.08
665.459	-2.92
665.491	-2.92
665.523	12.08
665.555	5.08
665.586	0.08
665.618	4.08
665.65	0.08
665.682	16.08
665.714	13.08
665.746	0.08
665.777	10.08
665.809	7.08
665.841	17.08
665.873	-5.92
665.905	-1.92
665.937	17.08
665.968	7.08
666	11.08
666.032	9.08
666.064	4.08
666.096	1.08
666.127	-6.92
666.159	19.08
666.191	13.08
666.223	-7.92
666.255	-5.92
666.286	9.08
666.318	4.08
666.35	21.08
666.382	-0.92
666.413	4.08
666.445	8.08
666.477	-2.92
666.509	-8.92
666.54	2.08
666.572	4.08
666.604	16.08
666.636	12.08
666.667	27.08
666.699	19.08
666.731	10.08
666.763	3.08
666.794	6.08
666.826	30.08
666.858	-7.92
666.89	27.08
666.921	24.08
666.953	6.08
666.985	19.08
667.017	28.08
667.048	15.08
667.08	-9.92
667.112	-14.92
667.143	-12.92
667.175	15.08
667.207	2.08
667.238	6.08
667.27	13.08
667.302	11.08
667.334	0.08
667.365	25.08
667.397	-4.92
667.429	-6.92
667.46	6.08
667.492	22.08
667.524	5.08
667.555	7.08
667.587	11.08
667.619	4.08
667.65	2.08
667.682	16.08
667.714	24.08
667.745	12.08
667.777	-4.92
667.808	11.08
667.84	14.08
667.872	-0.92
667.903	18.08
667.935	-5.92
667.967	-2.92
667.998	15.08
668.03	-3.92
668.061	-2.92
668.093	-3.92
668.125	6.08
668.156	4.08
668.188	14.08
668.22	-6.92
668.251	4.08
668.283	5.08
668.314	22.08
668.346	19.08
668.377	31.08
668.409	11.08
668.441	19.08
668.472	23.08
668.504	30.08
668.535	11.08
668.567	22.08
668.599	6.08
668.63	18.08
668.662	17.08
668.693	22.08
668.725	20.08
668.756	14.08
668.788	2.08
668.819	14.08
668.851	8.08
668.882	-1.92
668.914	3.08
668.946	20.08
668.977	8.08
669.009	10.08
669.04	2.08
669.072	7.08
669.103	-6.92
669.135	1.08
669.166	7.08
669.198	4.08
669.229	8.08
669.261	-6.92
669.292	-14.92
669.324	18.08
669.355	7.08
669.387	-14.92
669.418	10.08
669.45	3.08
669.481	0.08
669.513	5.08
669.544	9.08
669.576	-5.92
669.607	32.08
669.639	22.08
669.67	-8.92
669.701	20.08
669.733	6.08
669.764	5.08
669.796	9.08
669.827	-8.92
669.859	7.08
669.89	19.08
669.922	24.08
669.953	4.08
669.985	-0.92
670.016	10.08
670.047	1.08
670.079	7.08
670.11	12.08
670.142	16.08
670.173	0.08
670.204	6.08
670.236	-7.92
670.267	-9.92
670.299	-11.92
670.33	-5.92
670.362	7.08
670.393	-2.92
670.424	21.08
670.456	-3.92
670.487	-1.92
670.518	8.08
670.55	10.08
670.581	-1.92
670.613	14.08
670.644	10.08
670.675	7.08
670.707	2.08
670.738	-3.92
670.769	-4.92
670.801	-17.92
670.832	14.08
670.864	16.08
670.895	19.08
670.926	2.08
670.958	10.08
670.989	11.08
671.02	-13.92
671.052	14.08
671.083	2.08
671.114	-2.92
671.146	14.08
671.177	4.08
671.208	-5.92
671.24	-13.92
671.271	3.08
671.302	17.08
671.333	9.08
671.365	3.08
671.396	-12.92
671.427	11.08
671.459	13.08
671.49	14.08
671.521	1.08
671.553	10.08
671.584	9.08
671.615	-1.92
671.646	15.08
671.678	9.08
671.709	-6.92
671.74	3.08
671.771	24.08
671.803	1.08
671.834	12.08
671.865	12.08
671.896	15.08
671.928	6.08
671.959	6.08
671.99	5.08
672.021	6.08
672.053	-2.92
672.084	20.08
672.115	23.08
672.146	2.08
672.178	-24.92
672.209	8.08
672.24	-11.92
672.271	21.08
672.303	0.08
672.334	-4.92
672.365	7.08
672.396	12.08
672.427	-3.92
672.459	1.08
672.49	30.08
672.521	12.08
672.552	5.08
672.583	3.08
672.615	7.08
672.646	22.08
672.677	5.08
672.708	0.08
672.739	7.08
672.77	18.08
672.802	23.08
672.833	2.08
672.864	3.08
672.895	-4.92
672.926	-1.92
672.957	-3.92
672.989	-5.92
673.02	9.08
673.051	28.08
673.082	27.08
673.113	0.08
673.144	5.08
673.175	16.08
673.206	-0.92
673.238	1.08
673.269	-5.92
673.3	-1.92
673.331	9.08
673.362	3.08
673.393	-3.92
673.424	20.08
673.455	24.08
673.487	15.08
673.518	14.08
673.549	7.08
673.58	6.08
673.611	8.08
673.642	13.08
673.673	-8.92
673.704	-4.92
673.735	-2.92
673.766	-2.92
673.797	5.08
673.828	16.08
673.86	-0.92
673.891	-14.92
673.922	-7.92
673.953	1.08
673.984	6.08
674.015	11.08
674.046	-2.92
674.077	13.08
674.108	-4.92
674.139	-11.92
674.17	4.08
674.201	10.08
674.232	6.08
674.263	13.08
674.294	6.08
674.325	-5.92
674.356	15.08
674.387	19.08
674.418	-0.92
674.449	3.08
674.48	2.08
674.511	10.08
674.542	16.08
674.573	9.08
674.604	14.08
674.635	2.08
674.666	28.08
674.697	10.08
674.728	10.08
674.759	6.08
674.79	-2.92
674.821	-7.92
674.852	-0.92
674.883	8.08
674.914	8.08
674.945	6.08
674.976	16.08
675.007	2.08
675.038	-4.92
675.069	4.08
675.1	0.08
675.131	9.08
675.162	-11.92
675.193	5.08
675.224	7.08
675.254	11.08
675.285	18.08
675.316	9.08
675.347	16.08
675.378	9.08
675.409	5.08
675.44	22.08
675.471	5.08
675.502	-5.92
675.533	8.08
675.564	-0.92
675.595	2.08
675.625	20.08
675.656	2.08
675.687	3.08
675.718	-5.92
675.749	3.08
675.78	8.08
675.811	-5.92
675.842	7.08
675.873	8.08
675.903	-7.92
675.934	7.08
675.965	3.08
675.996	4.08
676.027	11.08
676.058	10.08
676.089	-7.92
676.119	6.08
676.15	6.08
676.181	9.08
676.212	-0.92
676.243	10.08
676.274	3.08
676.304	25.08
676.335	4.08
676.366	4.08
676.397	5.08
676.428	1.08
676.459	9.08
676.489	4.08
676.52	21.08
676.551	10.08
676.582	2.08
676.613	5.08
676.643	6.08
676.674	13.08
676.705	-1.92
676.736	0.08
676.767	15.08
676.797	8.08
676.828	15.08
676.859	3.08
676.89	14.08
676.92	15.08
676.951	12.08
676.982	13.08
677.013	0.08
677.044	11.08
677.074	30.08
677.105	6.08
677.136	-4.92
677.167	6.08
677.197	10.08
677.228	-1.92
677.259	-4.92
677.289	5.08
677.32	1.08
677.351	1.08
677.382	7.08
677.412	-4.92
677.443	6.08
677.474	16.08
677.505	-1.92
677.535	9.08
677.566	6.08
677.597	-10.92
677.627	2.08
677.658	5.08
677.689	-10.92
677.72	1.08
677.75	-1.92
677.781	-7.92
677.812	1.08
677.842	16.08
677.873	5.08
677.904	-8.92
677.934	1.08
677.965	-2.92
677.996	-13.92
678.026	5.08
678.057	3.08
678.088	-11.92
678.118	0.08
678.149	-6.92
678.18	1.08
678.21	10.08
678.241	17.08
678.272	-7.92
678.302	18.08
678.333	11.08
678.363	3.08
678.394	8.08
678.425	4.08
678.455	8.08
678.486	17.08
678.517	14.08
678.547	15.08
678.578	2.08
678.608	-2.92
678.639	19.08
678.67	5.08
678.7	-5.92
678.731	-0.92
678.761	-10.92
678.792	13.08
678.823	10.08
678.853	13.08
678.884	-11.92
678.914	3.08
678.945	-0.92
678.975	-6.92
679.006	2.08
679.037	-8.92
679.067	15.08
679.098	6.08
679.128	-2.92
679.159	-2.92
679.189	14.08
679.22	-18.92
679.25	6.08
679.281	5.08
679.312	1.08
679.342	7.08
679.373	41.08
679.403	9.08
679.434	15.08
679.464	2.08
679.495	6.08
679.525	0.08
679.556	-0.92
679.586	7.08
679.617	19.08
679.647	9.08
679.678	-10.92
679.708	9.08
679.739	7.08
679.769	8.08
679.8	9.08
679.83	15.08
679.861	17.08
679.891	-2.92
679.922	-15.92
679.952	12.08
679.983	1.08
680.013	-0.92
680.044	2.08
680.074	5.08
680.105	10.08
680.135	6.08
680.165	4.08
680.196	8.08
680.226	3.08
680.257	22.08
680.287	14.08
680.318	7.08
680.348	-20.92
680.379	12.08
680.409	15.08
680.439	14.08
680.47	-0.92
680.5	6.08
680.531	1.08
680.561	11.08
680.592	7.08
680.622	15.08
680.652	19.08
680.683	25.08
680.713	2.08
680.744	-11.92
680.774	-2.92
680.804	7.08
680.835	1.08
680.865	-10.92
680.896	13.08
680.926	21.08
680.956	14.08
680.987	3.08
681.017	-13.92
681.047	14.08
681.078	0.08
681.108	5.08
681.139	6.08
681.169	14.08
681.199	10.08
681.23	9.08
681.26	4.08
681.29	8.08
681.321	-2.92
681.351	-5.92
681.381	-9.92
681.412	12.08
681.442	9.08
681.472	4.08
681.503	11.08
681.533	0.08
681.563	-0.92
681.594	8.08
681.624	6.08
681.654	-6.92
681.685	-2.92
681.715	9.08
681.745	4.08
681.775	0.08
681.806	11.08
681.836	8.08
681.866	-6.92
681.897	6.08
681.927	1.08
681.957	-16.92
681.987	13.08
682.018	-9.92
682.048	6.08
682.078	8.08
682.109	34.08
682.139	8.08
682.169	-7.92
682.199	-10.92
682.23	6.08
682.26	13.08
682.29	-8.92
682.32	-11.92
682.351	-5.92
682.381	6.08
682.411	-2.92
682.441	-6.92
682.472	-10.92
682.502	5.08
682.532	1.08
682.562	7.08
682.592	5.08
682.623	20.08
682.653	18.08
682.683	-4.92
682.713	16.08
682.743	6.08
682.774	-1.92
682.804	7.08
682.834	7.08
682.864	11.08
682.894	-12.92
