Data from HighRes_mercury_15_13_11_07_2024_HR4C61891__56__15-14-28-786.txt Node

Date: Thu Nov 07 15:14:28 EST 2024
User: crc00042
Spectrometer: HR4C6189
Trigger mode: 4
Integration Time (sec): 1.000000E-1
Scans to average: 1
Electric dark correction enabled: true
Nonlinearity correction enabled: false
Boxcar width: 0
XAxis mode: Wavelengths
Number of Pixels in Spectrum: 3648
>>>>>Begin Spectral Data<<<<<
639.567	-60.77
639.602	-60.77
639.636	-60.77
639.67	-51.77
639.704	-12.77
639.738	11.23
639.773	3.23
639.807	-21.77
639.841	1.23
639.875	9.23
639.909	9.23
639.943	3.23
639.978	-1.77
640.012	-7.77
640.046	4.23
640.08	7.23
640.114	1.23
640.148	-18.77
640.182	-7.77
640.217	12.23
640.251	20.23
640.285	3.23
640.319	-10.77
640.353	-2.77
640.387	13.23
640.421	-8.77
640.455	-4.77
640.49	-23.77
640.524	1.23
640.558	17.23
640.592	0.23
640.626	15.23
640.66	7.23
640.694	-8.77
640.728	-4.77
640.762	1.23
640.796	19.23
640.83	15.23
640.865	-6.77
640.899	5.23
640.933	-6.77
640.967	5.23
641.001	8.23
641.035	9.23
641.069	18.23
641.103	-1.77
641.137	-2.77
641.171	-9.77
641.205	8.23
641.239	-2.77
641.273	10.23
641.307	11.23
641.341	6.23
641.375	12.23
641.409	-1.77
641.443	2.23
641.477	2.23
641.511	17.23
641.545	13.23
641.579	2.23
641.614	2.23
641.648	-0.77
641.682	-5.77
641.716	5.23
641.75	13.23
641.784	7.23
641.818	3.23
641.852	9.23
641.886	-9.77
641.919	29.23
641.953	8.23
641.987	-9.77
642.021	-13.77
642.055	0.23
642.089	-2.77
642.123	3.23
642.157	-7.77
642.191	-0.77
642.225	1.23
642.259	-6.77
642.293	2.23
642.327	8.23
642.361	-5.77
642.395	1.23
642.429	10.23
642.463	12.23
642.497	8.23
642.531	6.23
642.565	0.23
642.599	4.23
642.633	-2.77
642.666	1.23
642.7	10.23
642.734	13.23
642.768	-12.77
642.802	10.23
642.836	9.23
642.87	7.23
642.904	13.23
642.938	7.23
642.972	7.23
643.005	9.23
643.039	21.23
643.073	-8.77
643.107	5.23
643.141	-6.77
643.175	-0.77
643.209	9.23
643.243	-9.77
643.276	-10.77
643.31	-2.77
643.344	-6.77
643.378	-5.77
643.412	9.23
643.446	9.23
643.48	10.23
643.513	5.23
643.547	-2.77
643.581	-6.77
643.615	13.23
643.649	5.23
643.683	11.23
643.716	-7.77
643.75	21.23
643.784	-10.77
643.818	17.23
643.852	-0.77
643.886	-0.77
643.919	10.23
643.953	-1.77
643.987	-3.77
644.021	15.23
644.055	8.23
644.088	-2.77
644.122	-17.77
644.156	-8.77
644.19	-0.77
644.224	-3.77
644.257	-7.77
644.291	0.23
644.325	5.23
644.359	-3.77
644.392	29.23
644.426	22.23
644.46	3.23
644.494	15.23
644.527	-2.77
644.561	6.23
644.595	-6.77
644.629	0.23
644.662	7.23
644.696	2.23
644.73	12.23
644.764	-3.77
644.797	-6.77
644.831	3.23
644.865	5.23
644.899	-7.77
644.932	26.23
644.966	-7.77
645	21.23
645.033	15.23
645.067	-9.77
645.101	1.23
645.135	8.23
645.168	18.23
645.202	9.23
645.236	-1.77
645.269	-1.77
645.303	-8.77
645.337	-5.77
645.37	-14.77
645.404	4.23
645.438	10.23
645.471	-10.77
645.505	4.23
645.539	-6.77
645.572	-16.77
645.606	-14.77
645.64	-1.77
645.673	-2.77
645.707	18.23
645.741	17.23
645.774	-3.77
645.808	6.23
645.842	6.23
645.875	7.23
645.909	-7.77
645.943	-12.77
645.976	1.23
646.01	6.23
646.043	10.23
646.077	7.23
646.111	7.23
646.144	0.23
646.178	14.23
646.212	-3.77
646.245	8.23
646.279	1.23
646.312	3.23
646.346	25.23
646.38	-2.77
646.413	4.23
646.447	-5.77
646.48	7.23
646.514	3.23
646.547	-4.77
646.581	0.23
646.615	15.23
646.648	-13.77
646.682	-0.77
646.715	-1.77
646.749	9.23
646.782	-17.77
646.816	-12.77
646.85	5.23
646.883	-2.77
646.917	-0.77
646.95	-7.77
646.984	2.23
647.017	4.23
647.051	4.23
647.084	-3.77
647.118	-7.77
647.151	-7.77
647.185	4.23
647.218	-15.77
647.252	-0.77
647.285	-9.77
647.319	-9.77
647.353	5.23
647.386	18.23
647.42	1.23
647.453	-4.77
647.487	19.23
647.52	7.23
647.553	17.23
647.587	5.23
647.62	-1.77
647.654	11.23
647.687	5.23
647.721	18.23
647.754	-3.77
647.788	-8.77
647.821	-1.77
647.855	-0.77
647.888	13.23
647.922	0.23
647.955	-0.77
647.989	8.23
648.022	-2.77
648.055	10.23
648.089	3.23
648.122	7.23
648.156	4.23
648.189	10.23
648.223	14.23
648.256	23.23
648.29	-1.77
648.323	5.23
648.356	1.23
648.39	-8.77
648.423	6.23
648.457	-9.77
648.49	6.23
648.523	11.23
648.557	-7.77
648.59	2.23
648.624	4.23
648.657	6.23
648.69	-1.77
648.724	3.23
648.757	14.23
648.791	-0.77
648.824	-3.77
648.857	23.23
648.891	10.23
648.924	17.23
648.957	11.23
648.991	-6.77
649.024	-10.77
649.057	-11.77
649.091	-7.77
649.124	8.23
649.158	16.23
649.191	16.23
649.224	15.23
649.258	1.23
649.291	8.23
649.324	25.23
649.358	-3.77
649.391	4.23
649.424	0.23
649.458	-3.77
649.491	2.23
649.524	-9.77
649.557	2.23
649.591	-14.77
649.624	0.23
649.657	-5.77
649.691	7.23
649.724	-3.77
649.757	3.23
649.791	-5.77
649.824	14.23
649.857	-9.77
649.89	2.23
649.924	-15.77
649.957	-15.77
649.99	-21.77
650.023	-10.77
650.057	7.23
650.09	6.23
650.123	2.23
650.157	8.23
650.19	29.23
650.223	-7.77
650.256	-8.77
650.29	-3.77
650.323	2.23
650.356	11.23
650.389	-1.77
650.423	-13.77
650.456	-1.77
650.489	-4.77
650.522	9.23
650.555	8.23
650.589	3.23
650.622	13.23
650.655	8.23
650.688	10.23
650.721	-4.77
650.755	8.23
650.788	2.23
650.821	7.23
650.854	1.23
650.887	-2.77
650.921	11.23
650.954	-17.77
650.987	-4.77
651.02	-4.77
651.053	1.23
651.087	-23.77
651.12	18.23
651.153	19.23
651.186	5.23
651.219	-9.77
651.252	9.23
651.286	-2.77
651.319	-14.77
651.352	-2.77
651.385	-4.77
651.418	9.23
651.451	-8.77
651.484	17.23
651.518	-10.77
651.551	11.23
651.584	-13.77
651.617	20.23
651.65	11.23
651.683	-0.77
651.716	-0.77
651.749	-9.77
651.783	-5.77
651.816	16.23
651.849	5.23
651.882	9.23
651.915	-15.77
651.948	6.23
651.981	1.23
652.014	7.23
652.047	-11.77
652.08	-16.77
652.114	4.23
652.147	-12.77
652.18	-12.77
652.213	17.23
652.246	-11.77
652.279	-13.77
652.312	9.23
652.345	3.23
652.378	8.23
652.411	8.23
652.444	-1.77
652.477	-8.77
652.51	-3.77
652.543	-10.77
652.576	9.23
652.609	-27.77
652.642	-5.77
652.675	13.23
652.709	9.23
652.742	25.23
652.775	7.23
652.808	6.23
652.841	5.23
652.874	6.23
652.907	5.23
652.94	1.23
652.973	-6.77
653.006	-17.77
653.039	-4.77
653.072	2.23
653.105	-6.77
653.138	-14.77
653.171	-12.77
653.204	-17.77
653.237	-4.77
653.27	-16.77
653.303	17.23
653.336	1.23
653.368	0.23
653.401	8.23
653.434	-17.77
653.467	2.23
653.5	-7.77
653.533	-11.77
653.566	-5.77
653.599	-3.77
653.632	-2.77
653.665	6.23
653.698	-15.77
653.731	-5.77
653.764	-10.77
653.797	2.23
653.83	4.23
653.863	8.23
653.896	1.23
653.929	-7.77
653.961	3.23
653.994	-0.77
654.027	-14.77
654.06	21.23
654.093	18.23
654.126	4.23
654.159	-12.77
654.192	-11.77
654.225	-8.77
654.258	-2.77
654.29	5.23
654.323	-11.77
654.356	-15.77
654.389	0.23
654.422	-5.77
654.455	-6.77
654.488	-0.77
654.521	-22.77
654.553	-17.77
654.586	6.23
654.619	-0.77
654.652	-8.77
654.685	14.23
654.718	13.23
654.751	15.23
654.783	-10.77
654.816	0.23
654.849	0.23
654.882	-6.77
654.915	1.23
654.948	9.23
654.98	-2.77
655.013	2.23
655.046	-5.77
655.079	-12.77
655.112	3.23
655.144	-7.77
655.177	10.23
655.21	3.23
655.243	5.23
655.276	2.23
655.308	-1.77
655.341	-7.77
655.374	-8.77
655.407	-16.77
655.44	-8.77
655.472	-0.77
655.505	0.23
655.538	-5.77
655.571	3.23
655.603	11.23
655.636	-5.77
655.669	-6.77
655.702	-1.77
655.734	-27.77
655.767	-13.77
655.8	9.23
655.833	9.23
655.865	2.23
655.898	-7.77
655.931	-8.77
655.964	2.23
655.996	-0.77
656.029	13.23
656.062	2.23
656.095	-8.77
656.127	-24.77
656.16	-0.77
656.193	-8.77
656.225	4.23
656.258	9.23
656.291	4.23
656.324	12.23
656.356	4.23
656.389	20.23
656.422	10.23
656.454	1.23
656.487	-11.77
656.52	0.23
656.552	3.23
656.585	2.23
656.618	19.23
656.65	21.23
656.683	6.23
656.716	-0.77
656.748	-5.77
656.781	-0.77
656.814	-2.77
656.846	9.23
656.879	-7.77
656.912	0.23
656.944	-7.77
656.977	-18.77
657.01	-7.77
657.042	-3.77
657.075	2.23
657.108	-2.77
657.14	11.23
657.173	13.23
657.205	45.23
657.238	20.23
657.271	4.23
657.303	-2.77
657.336	-4.77
657.369	3.23
657.401	-6.77
657.434	7.23
657.466	-2.77
657.499	6.23
657.532	-13.77
657.564	6.23
657.597	-17.77
657.629	7.23
657.662	9.23
657.694	3.23
657.727	-21.77
657.76	-0.77
657.792	-27.77
657.825	1.23
657.857	1.23
657.89	-9.77
657.922	8.23
657.955	-3.77
657.987	3.23
658.02	7.23
658.053	16.23
658.085	8.23
658.118	17.23
658.15	2.23
658.183	4.23
658.215	-12.77
658.248	-10.77
658.28	-5.77
658.313	6.23
658.345	11.23
658.378	4.23
658.41	-5.77
658.443	2.23
658.475	-2.77
658.508	-0.77
658.54	-5.77
658.573	-2.77
658.605	-8.77
658.638	-3.77
658.67	-11.77
658.703	-8.77
658.735	-1.77
658.768	10.23
658.8	-6.77
658.833	0.23
658.865	7.23
658.898	3.23
658.93	-1.77
658.963	-1.77
658.995	-18.77
659.028	0.23
659.06	-0.77
659.092	-7.77
659.125	1.23
659.157	8.23
659.19	-11.77
659.222	-0.77
659.255	2.23
659.287	1.23
659.32	2.23
659.352	15.23
659.384	5.23
659.417	-4.77
659.449	16.23
659.482	3.23
659.514	-13.77
659.546	-0.77
659.579	-17.77
659.611	0.23
659.644	0.23
659.676	-10.77
659.708	2.23
659.741	-15.77
659.773	21.23
659.806	19.23
659.838	5.23
659.87	11.23
659.903	-7.77
659.935	17.23
659.967	-0.77
660	10.23
660.032	-29.77
660.065	8.23
660.097	-3.77
660.129	1.23
660.162	-2.77
660.194	-2.77
660.226	1.23
660.259	7.23
660.291	6.23
660.323	1.23
660.356	2.23
660.388	0.23
660.42	6.23
660.453	8.23
660.485	14.23
660.517	2.23
660.55	17.23
660.582	0.23
660.614	17.23
660.647	-15.77
660.679	-0.77
660.711	3.23
660.743	-2.77
660.776	-10.77
660.808	-32.77
660.84	-6.77
660.873	1.23
660.905	3.23
660.937	10.23
660.969	-7.77
661.002	-0.77
661.034	2.23
661.066	4.23
661.099	3.23
661.131	10.23
661.163	-1.77
661.195	-2.77
661.228	20.23
661.26	8.23
661.292	8.23
661.324	10.23
661.357	16.23
661.389	9.23
661.421	-9.77
661.453	-3.77
661.485	-3.77
661.518	1.23
661.55	-5.77
661.582	-17.77
661.614	1.23
661.647	10.23
661.679	-6.77
661.711	10.23
661.743	-4.77
661.775	2.23
661.808	24.23
661.84	5.23
661.872	3.23
661.904	-3.77
661.936	-2.77
661.969	-2.77
662.001	0.23
662.033	1.23
662.065	-4.77
662.097	15.23
662.129	-1.77
662.162	-20.77
662.194	3.23
662.226	-0.77
662.258	5.23
662.29	2.23
662.322	-5.77
662.355	-17.77
662.387	26.23
662.419	8.23
662.451	14.23
662.483	15.23
662.515	6.23
662.547	9.23
662.58	-0.77
662.612	-2.77
662.644	-9.77
662.676	13.23
662.708	13.23
662.74	0.23
662.772	6.23
662.804	16.23
662.836	11.23
662.869	-9.77
662.901	2.23
662.933	6.23
662.965	10.23
662.997	10.23
663.029	1.23
663.061	-2.77
663.093	-17.77
663.125	2.23
663.157	12.23
663.189	-4.77
663.221	4.23
663.254	-1.77
663.286	7.23
663.318	-4.77
663.35	-2.77
663.382	7.23
663.414	0.23
663.446	12.23
663.478	-10.77
663.51	36.23
663.542	-1.77
663.574	7.23
663.606	2.23
663.638	-5.77
663.67	-9.77
663.702	8.23
663.734	1.23
663.766	11.23
663.798	-1.77
663.83	0.23
663.862	3.23
663.894	3.23
663.926	4.23
663.958	1.23
663.99	3.23
664.022	-19.77
664.054	12.23
664.086	-7.77
664.118	-1.77
664.15	-3.77
664.182	2.23
664.214	-2.77
664.246	8.23
664.278	-5.77
664.31	15.23
664.342	2.23
664.374	7.23
664.406	9.23
664.438	-4.77
664.47	3.23
664.502	5.23
664.534	0.23
664.566	4.23
664.598	5.23
664.63	-1.77
664.662	-0.77
664.693	0.23
664.725	-14.77
664.757	-15.77
664.789	1.23
664.821	12.23
664.853	5.23
664.885	-11.77
664.917	-12.77
664.949	22.23
664.981	28.23
665.013	9.23
665.045	-5.77
665.076	-2.77
665.108	2.23
665.14	-1.77
665.172	-9.77
665.204	-7.77
665.236	6.23
665.268	5.23
665.3	-5.77
665.331	-17.77
665.363	-11.77
665.395	-10.77
665.427	-7.77
665.459	0.23
665.491	10.23
665.523	-3.77
665.555	-7.77
665.586	-1.77
665.618	-10.77
665.65	-2.77
665.682	5.23
665.714	-13.77
665.746	-10.77
665.777	-3.77
665.809	-2.77
665.841	9.23
665.873	-7.77
665.905	13.23
665.937	3.23
665.968	9.23
666	5.23
666.032	0.23
666.064	-25.77
666.096	-6.77
666.127	-10.77
666.159	6.23
666.191	26.23
666.223	8.23
666.255	3.23
666.286	20.23
666.318	-5.77
666.35	4.23
666.382	4.23
666.413	1.23
666.445	-14.77
666.477	-12.77
666.509	4.23
666.54	3.23
666.572	7.23
666.604	-9.77
666.636	15.23
666.667	19.23
666.699	17.23
666.731	2.23
666.763	-5.77
666.794	1.23
666.826	2.23
666.858	-10.77
666.89	11.23
666.921	-6.77
666.953	-2.77
666.985	12.23
667.017	11.23
667.048	13.23
667.08	2.23
667.112	-0.77
667.143	-0.77
667.175	-1.77
667.207	-8.77
667.238	-2.77
667.27	0.23
667.302	0.23
667.334	-17.77
667.365	13.23
667.397	3.23
667.429	-0.77
667.46	13.23
667.492	10.23
667.524	-2.77
667.555	8.23
667.587	-2.77
667.619	-4.77
667.65	-2.77
667.682	-4.77
667.714	7.23
667.745	-5.77
667.777	-7.77
667.808	-16.77
667.84	14.23
667.872	1.23
667.903	12.23
667.935	-7.77
667.967	2.23
667.998	3.23
668.03	3.23
668.061	13.23
668.093	-10.77
668.125	2.23
668.156	0.23
668.188	-2.77
668.22	-20.77
668.251	5.23
668.283	-5.77
668.314	7.23
668.346	-1.77
668.377	11.23
668.409	19.23
668.441	18.23
668.472	0.23
668.504	3.23
668.535	3.23
668.567	19.23
668.599	11.23
668.63	0.23
668.662	-17.77
668.693	8.23
668.725	7.23
668.756	-2.77
668.788	-4.77
668.819	0.23
668.851	2.23
668.882	0.23
668.914	6.23
668.946	-2.77
668.977	-15.77
669.009	-8.77
669.04	-17.77
669.072	13.23
669.103	5.23
669.135	-3.77
669.166	7.23
669.198	2.23
669.229	12.23
669.261	4.23
669.292	11.23
669.324	1.23
669.355	2.23
669.387	1.23
669.418	7.23
669.45	-4.77
669.481	0.23
669.513	1.23
669.544	8.23
669.576	7.23
669.607	2.23
669.639	15.23
669.67	-3.77
669.701	10.23
669.733	-1.77
669.764	-16.77
669.796	-7.77
669.827	1.23
669.859	-1.77
669.89	2.23
669.922	23.23
669.953	-11.77
669.985	-5.77
670.016	8.23
670.047	8.23
670.079	-11.77
670.11	9.23
670.142	3.23
670.173	-5.77
670.204	-9.77
670.236	-5.77
670.267	-14.77
670.299	-8.77
670.33	5.23
670.362	-2.77
670.393	-11.77
670.424	-5.77
670.456	-6.77
670.487	2.23
670.518	-0.77
670.55	5.23
670.581	-7.77
670.613	12.23
670.644	-19.77
670.675	-17.77
670.707	-12.77
670.738	-2.77
670.769	5.23
670.801	-6.77
670.832	7.23
670.864	-6.77
670.895	0.23
670.926	0.23
670.958	-12.77
670.989	-12.77
671.02	1.23
671.052	-5.77
671.083	-0.77
671.114	-6.77
671.146	11.23
671.177	17.23
671.208	-11.77
671.24	-0.77
671.271	1.23
671.302	2.23
671.333	-2.77
671.365	-18.77
671.396	-11.77
671.427	1.23
671.459	12.23
671.49	7.23
671.521	8.23
671.553	5.23
671.584	-1.77
671.615	8.23
671.646	5.23
671.678	2.23
671.709	-0.77
671.74	-18.77
671.771	-7.77
671.803	10.23
671.834	5.23
671.865	-17.77
671.896	-1.77
671.928	0.23
671.959	-4.77
671.99	-17.77
672.021	-11.77
672.053	-10.77
672.084	9.23
672.115	10.23
672.146	-4.77
672.178	-14.77
672.209	-2.77
672.24	-2.77
672.271	23.23
672.303	-21.77
672.334	2.23
672.365	-17.77
672.396	-11.77
672.427	1.23
672.459	18.23
672.49	19.23
672.521	0.23
672.552	-1.77
672.583	7.23
672.615	17.23
672.646	11.23
672.677	-2.77
672.708	10.23
672.739	-6.77
672.77	18.23
672.802	2.23
672.833	0.23
672.864	-2.77
672.895	2.23
672.926	25.23
672.957	0.23
672.989	10.23
673.02	16.23
673.051	3.23
673.082	12.23
673.113	4.23
673.144	9.23
673.175	18.23
673.206	-4.77
673.238	3.23
673.269	-14.77
673.3	-6.77
673.331	1.23
673.362	-6.77
673.393	4.23
673.424	6.23
673.455	-1.77
673.487	-22.77
673.518	1.23
673.549	-5.77
673.58	-5.77
673.611	1.23
673.642	1.23
673.673	-15.77
673.704	1.23
673.735	-0.77
673.766	1.23
673.797	2.23
673.828	-3.77
673.86	-14.77
673.891	-24.77
673.922	-18.77
673.953	-5.77
673.984	-3.77
674.015	6.23
674.046	5.23
674.077	1.23
674.108	1.23
674.139	-6.77
674.17	-15.77
674.201	-15.77
674.232	-14.77
674.263	-7.77
674.294	-5.77
674.325	-11.77
674.356	7.23
674.387	9.23
674.418	4.23
674.449	-19.77
674.48	-5.77
674.511	3.23
674.542	3.23
674.573	-17.77
674.604	-6.77
674.635	-1.77
674.666	-0.77
674.697	9.23
674.728	6.23
674.759	2.23
674.79	-18.77
674.821	4.23
674.852	6.23
674.883	1.23
674.914	9.23
674.945	-0.77
674.976	18.23
675.007	-8.77
675.038	-24.77
675.069	-11.77
675.1	-10.77
675.131	-3.77
675.162	-1.77
675.193	-1.77
675.224	-0.77
675.254	-3.77
675.285	15.23
675.316	8.23
675.347	4.23
675.378	-12.77
675.409	-27.77
675.44	9.23
675.471	5.23
675.502	-0.77
675.533	-2.77
675.564	-1.77
675.595	8.23
675.625	3.23
675.656	1.23
675.687	-6.77
675.718	-15.77
675.749	3.23
675.78	1.23
675.811	4.23
675.842	5.23
675.873	3.23
675.903	-2.77
675.934	0.23
675.965	-16.77
675.996	-9.77
676.027	-1.77
676.058	-0.77
676.089	-12.77
676.119	-12.77
676.15	-7.77
676.181	1.23
676.212	-0.77
676.243	6.23
676.274	5.23
676.304	16.23
676.335	-8.77
676.366	4.23
676.397	-14.77
676.428	1.23
676.459	11.23
676.489	-14.77
676.52	5.23
676.551	-9.77
676.582	-4.77
676.613	7.23
676.643	-9.77
676.674	-8.77
676.705	8.23
676.736	5.23
676.767	6.23
676.797	10.23
676.828	-8.77
676.859	4.23
676.89	-10.77
676.92	-8.77
676.951	-0.77
676.982	7.23
677.013	-5.77
677.044	23.23
677.074	25.23
677.105	-5.77
677.136	11.23
677.167	3.23
677.197	8.23
677.228	4.23
677.259	-6.77
677.289	5.23
677.32	-0.77
677.351	-12.77
677.382	-11.77
677.412	-13.77
677.443	-8.77
677.474	1.23
677.505	-4.77
677.535	-3.77
677.566	-8.77
677.597	-11.77
677.627	-17.77
677.658	-5.77
677.689	-2.77
677.72	1.23
677.75	4.23
677.781	3.23
677.812	-8.77
677.842	-2.77
677.873	11.23
677.904	-3.77
677.934	-7.77
677.965	-17.77
677.996	-5.77
678.026	-4.77
678.057	-9.77
678.088	-0.77
678.118	-5.77
678.149	-14.77
678.18	-2.77
678.21	0.23
678.241	0.23
678.272	11.23
678.302	3.23
678.333	5.23
678.363	2.23
678.394	12.23
678.425	3.23
678.455	1.23
678.486	5.23
678.517	16.23
678.547	1.23
678.578	1.23
678.608	-15.77
678.639	9.23
678.67	2.23
678.7	-18.77
678.731	2.23
678.761	-2.77
678.792	-0.77
678.823	0.23
678.853	13.23
678.884	-9.77
678.914	1.23
678.945	15.23
678.975	-5.77
679.006	-4.77
679.037	-6.77
679.067	23.23
679.098	6.23
679.128	-8.77
679.159	-7.77
679.189	16.23
679.22	-0.77
679.25	5.23
679.281	-8.77
679.312	-8.77
679.342	10.23
679.373	26.23
679.403	9.23
679.434	8.23
679.464	-15.77
679.495	-7.77
679.525	-23.77
679.556	-8.77
679.586	4.23
679.617	12.23
679.647	-2.77
679.678	-6.77
679.708	-8.77
679.739	-1.77
679.769	-8.77
679.8	-1.77
679.83	4.23
679.861	-6.77
679.891	-2.77
679.922	-15.77
679.952	-17.77
679.983	0.23
680.013	11.23
680.044	-3.77
680.074	14.23
680.105	-2.77
680.135	-1.77
680.165	5.23
680.196	13.23
680.226	-0.77
680.257	7.23
680.287	10.23
680.318	-2.77
680.348	-6.77
680.379	8.23
680.409	1.23
680.439	-10.77
680.47	-2.77
680.5	2.23
680.531	6.23
680.561	12.23
680.592	-0.77
680.622	6.23
680.652	-1.77
680.683	4.23
680.713	-8.77
680.744	0.23
680.774	-8.77
680.804	10.23
680.835	-3.77
680.865	-2.77
680.896	17.23
680.926	17.23
680.956	0.23
680.987	-6.77
681.017	0.23
681.047	12.23
681.078	-9.77
681.108	3.23
681.139	-2.77
681.169	-11.77
681.199	9.23
681.23	8.23
681.26	-10.77
681.29	8.23
681.321	-0.77
681.351	6.23
681.381	-15.77
681.412	0.23
681.442	-0.77
681.472	4.23
681.503	5.23
681.533	8.23
681.563	-7.77
681.594	-0.77
681.624	-13.77
681.654	-11.77
681.685	-15.77
681.715	9.23
681.745	2.23
681.775	7.23
681.806	-1.77
681.836	9.23
681.866	-15.77
681.897	-1.77
681.927	-6.77
681.957	-29.77
681.987	4.23
682.018	3.23
682.048	6.23
682.078	-0.77
682.109	16.23
682.139	7.23
682.169	2.23
682.199	2.23
682.23	-14.77
682.26	0.23
682.29	-10.77
682.32	-1.77
682.351	8.23
682.381	-1.77
682.411	-2.77
682.441	-5.77
682.472	-20.77
682.502	-3.77
682.532	-3.77
682.562	0.23
682.592	8.23
