Data from HighRes_mercury_15_13_11_07_2024_HR4C61891__90__15-14-32-185.txt Node

Date: Thu Nov 07 15:14:32 EST 2024
User: crc00042
Spectrometer: HR4C6189
Trigger mode: 4
Integration Time (sec): 1.000000E-1
Scans to average: 1
Electric dark correction enabled: true
Nonlinearity correction enabled: false
Boxcar width: 0
XAxis mode: Wavelengths
Number of Pixels in Spectrum: 3648
>>>>>Begin Spectral Data<<<<<
639.567	-26.08
639.602	-26.08
639.636	-26.08
639.67	-37.08
639.704	-13.08
639.738	-5.08
639.773	7.92
639.807	-15.08
639.841	0.92
639.875	10.92
639.909	-7.08
639.943	-11.08
639.978	-10.08
640.012	-0.08
640.046	15.92
640.08	6.92
640.114	8.92
640.148	-3.08
640.182	-0.08
640.217	-1.08
640.251	20.92
640.285	20.92
640.319	-13.08
640.353	-15.08
640.387	-5.08
640.421	2.92
640.455	-8.08
640.49	-1.08
640.524	1.92
640.558	3.92
640.592	-1.08
640.626	6.92
640.66	18.92
640.694	-23.08
640.728	2.92
640.762	4.92
640.796	4.92
640.83	12.92
640.865	12.92
640.899	-0.08
640.933	4.92
640.967	-20.08
641.001	-0.08
641.035	10.92
641.069	10.92
641.103	-21.08
641.137	0.92
641.171	-9.08
641.205	12.92
641.239	3.92
641.273	3.92
641.307	3.92
641.341	6.92
641.375	1.92
641.409	-2.08
641.443	1.92
641.477	17.92
641.511	16.92
641.545	-4.08
641.579	7.92
641.614	14.92
641.648	22.92
641.682	-2.08
641.716	20.92
641.75	17.92
641.784	6.92
641.818	7.92
641.852	21.92
641.886	0.92
641.919	4.92
641.953	7.92
641.987	0.92
642.021	-3.08
642.055	6.92
642.089	0.92
642.123	-0.08
642.157	-8.08
642.191	-9.08
642.225	4.92
642.259	-9.08
642.293	14.92
642.327	-7.08
642.361	-1.08
642.395	16.92
642.429	15.92
642.463	0.92
642.497	12.92
642.531	5.92
642.565	-8.08
642.599	-5.08
642.633	3.92
642.666	13.92
642.7	14.92
642.734	17.92
642.768	-7.08
642.802	-0.08
642.836	7.92
642.87	1.92
642.904	8.92
642.938	10.92
642.972	16.92
643.005	-1.08
643.039	8.92
643.073	4.92
643.107	17.92
643.141	6.92
643.175	11.92
643.209	14.92
643.243	4.92
643.276	19.92
643.31	6.92
643.344	-8.08
643.378	-12.08
643.412	7.92
643.446	-5.08
643.48	0.92
643.513	6.92
643.547	5.92
643.581	-3.08
643.615	-6.08
643.649	2.92
643.683	4.92
643.716	0.92
643.75	22.92
643.784	-6.08
643.818	5.92
643.852	-4.08
643.886	-6.08
643.919	6.92
643.953	3.92
643.987	-4.08
644.021	5.92
644.055	0.92
644.088	1.92
644.122	-25.08
644.156	-15.08
644.19	-0.08
644.224	4.92
644.257	10.92
644.291	11.92
644.325	5.92
644.359	0.92
644.392	17.92
644.426	18.92
644.46	15.92
644.494	7.92
644.527	-12.08
644.561	-8.08
644.595	3.92
644.629	-0.08
644.662	-4.08
644.696	12.92
644.73	4.92
644.764	7.92
644.797	18.92
644.831	12.92
644.865	18.92
644.899	0.92
644.932	26.92
644.966	1.92
645	21.92
645.033	0.92
645.067	-6.08
645.101	-1.08
645.135	6.92
645.168	3.92
645.202	-8.08
645.236	1.92
645.269	6.92
645.303	0.92
645.337	-26.08
645.37	-9.08
645.404	10.92
645.438	0.92
645.471	-8.08
645.505	2.92
645.539	-12.08
645.572	5.92
645.606	-4.08
645.64	6.92
645.673	1.92
645.707	29.92
645.741	10.92
645.774	8.92
645.808	5.92
645.842	14.92
645.875	10.92
645.909	0.92
645.943	-1.08
645.976	9.92
646.01	8.92
646.043	13.92
646.077	22.92
646.111	-4.08
646.144	4.92
646.178	18.92
646.212	8.92
646.245	10.92
646.279	6.92
646.312	5.92
646.346	-1.08
646.38	6.92
646.413	28.92
646.447	15.92
646.48	5.92
646.514	6.92
646.547	-18.08
646.581	2.92
646.615	9.92
646.648	1.92
646.682	6.92
646.715	9.92
646.749	30.92
646.782	11.92
646.816	5.92
646.85	18.92
646.883	5.92
646.917	8.92
646.95	10.92
646.984	-0.08
647.017	10.92
647.051	1.92
647.084	7.92
647.118	2.92
647.151	-16.08
647.185	-0.08
647.218	-2.08
647.252	3.92
647.285	-0.08
647.319	-17.08
647.353	6.92
647.386	19.92
647.42	0.92
647.453	6.92
647.487	10.92
647.52	-3.08
647.553	-1.08
647.587	-7.08
647.62	-7.08
647.654	-0.08
647.687	15.92
647.721	7.92
647.754	3.92
647.788	-8.08
647.821	0.92
647.855	7.92
647.888	13.92
647.922	11.92
647.955	12.92
647.989	2.92
648.022	1.92
648.055	4.92
648.089	-5.08
648.122	26.92
648.156	0.92
648.189	8.92
648.223	-5.08
648.256	19.92
648.29	10.92
648.323	-2.08
648.356	7.92
648.39	14.92
648.423	-6.08
648.457	8.92
648.49	10.92
648.523	-2.08
648.557	0.92
648.59	0.92
648.624	12.92
648.657	10.92
648.69	20.92
648.724	3.92
648.757	16.92
648.791	8.92
648.824	16.92
648.857	35.92
648.891	19.92
648.924	-3.08
648.957	11.92
648.991	1.92
649.024	7.92
649.057	2.92
649.091	6.92
649.124	24.92
649.158	20.92
649.191	13.92
649.224	10.92
649.258	11.92
649.291	6.92
649.324	4.92
649.358	9.92
649.391	11.92
649.424	5.92
649.458	-5.08
649.491	9.92
649.524	-15.08
649.557	-17.08
649.591	-5.08
649.624	22.92
649.657	-3.08
649.691	0.92
649.724	6.92
649.757	1.92
649.791	-10.08
649.824	5.92
649.857	20.92
649.89	4.92
649.924	-13.08
649.957	-4.08
649.99	-16.08
650.023	-0.08
650.057	0.92
650.09	-6.08
650.123	-0.08
650.157	11.92
650.19	12.92
650.223	-16.08
650.256	-11.08
650.29	-4.08
650.323	0.92
650.356	5.92
650.389	1.92
650.423	-13.08
650.456	9.92
650.489	7.92
650.522	-2.08
650.555	14.92
650.589	21.92
650.622	0.92
650.655	22.92
650.688	14.92
650.721	-2.08
650.755	2.92
650.788	12.92
650.821	0.92
650.854	-2.08
650.887	-8.08
650.921	3.92
650.954	5.92
650.987	11.92
651.02	0.92
651.053	-9.08
651.087	-25.08
651.12	17.92
651.153	-2.08
651.186	4.92
651.219	-13.08
651.252	-4.08
651.286	4.92
651.319	11.92
651.352	0.92
651.385	0.92
651.418	6.92
651.451	17.92
651.484	3.92
651.518	-5.08
651.551	12.92
651.584	-5.08
651.617	12.92
651.65	4.92
651.683	22.92
651.716	1.92
651.749	-2.08
651.783	5.92
651.816	-7.08
651.849	16.92
651.882	25.92
651.915	-9.08
651.948	7.92
651.981	-16.08
652.014	-25.08
652.047	-27.08
652.08	-4.08
652.114	7.92
652.147	-3.08
652.18	-4.08
652.213	10.92
652.246	-5.08
652.279	-1.08
652.312	8.92
652.345	-0.08
652.378	5.92
652.411	3.92
652.444	10.92
652.477	-0.08
652.51	15.92
652.543	-3.08
652.576	13.92
652.609	-9.08
652.642	8.92
652.675	5.92
652.709	-1.08
652.742	3.92
652.775	3.92
652.808	9.92
652.841	4.92
652.874	-0.08
652.907	-1.08
652.94	2.92
652.973	-2.08
653.006	0.92
653.039	2.92
653.072	12.92
653.105	-8.08
653.138	-10.08
653.171	7.92
653.204	0.92
653.237	-0.08
653.27	4.92
653.303	18.92
653.336	14.92
653.368	-11.08
653.401	-16.08
653.434	-0.08
653.467	5.92
653.5	-21.08
653.533	-14.08
653.566	6.92
653.599	5.92
653.632	1.92
653.665	-4.08
653.698	-18.08
653.731	-15.08
653.764	11.92
653.797	-5.08
653.83	6.92
653.863	4.92
653.896	6.92
653.929	4.92
653.961	-1.08
653.994	12.92
654.027	7.92
654.06	3.92
654.093	2.92
654.126	-5.08
654.159	-2.08
654.192	1.92
654.225	1.92
654.258	-7.08
654.29	6.92
654.323	1.92
654.356	-6.08
654.389	0.92
654.422	3.92
654.455	14.92
654.488	-10.08
654.521	-12.08
654.553	-7.08
654.586	-3.08
654.619	-0.08
654.652	-7.08
654.685	-1.08
654.718	7.92
654.751	19.92
654.783	-4.08
654.816	18.92
654.849	1.92
654.882	6.92
654.915	-1.08
654.948	4.92
654.98	6.92
655.013	11.92
655.046	9.92
655.079	-4.08
655.112	-6.08
655.144	-4.08
655.177	-6.08
655.21	12.92
655.243	14.92
655.276	12.92
655.308	-7.08
655.341	-13.08
655.374	-2.08
655.407	-22.08
655.44	-16.08
655.472	10.92
655.505	3.92
655.538	-0.08
655.571	4.92
655.603	-8.08
655.636	-18.08
655.669	-4.08
655.702	1.92
655.734	-6.08
655.767	-6.08
655.8	13.92
655.833	2.92
655.865	-12.08
655.898	-4.08
655.931	-11.08
655.964	1.92
655.996	4.92
656.029	9.92
656.062	-9.08
656.095	-11.08
656.127	-11.08
656.16	-8.08
656.193	1.92
656.225	1.92
656.258	-4.08
656.291	0.92
656.324	-1.08
656.356	28.92
656.389	15.92
656.422	15.92
656.454	-6.08
656.487	-2.08
656.52	6.92
656.552	0.92
656.585	0.92
656.618	15.92
656.65	15.92
656.683	3.92
656.716	7.92
656.748	12.92
656.781	3.92
656.814	-1.08
656.846	18.92
656.879	-1.08
656.912	8.92
656.944	-8.08
656.977	7.92
657.01	-1.08
657.042	6.92
657.075	2.92
657.108	-14.08
657.14	-10.08
657.173	0.92
657.205	17.92
657.238	11.92
657.271	-7.08
657.303	-18.08
657.336	-7.08
657.369	-0.08
657.401	4.92
657.434	-2.08
657.466	10.92
657.499	0.92
657.532	20.92
657.564	12.92
657.597	-3.08
657.629	-8.08
657.662	4.92
657.694	4.92
657.727	-13.08
657.76	5.92
657.792	-13.08
657.825	-9.08
657.857	2.92
657.89	-4.08
657.922	11.92
657.955	-16.08
657.987	-1.08
658.02	-0.08
658.053	18.92
658.085	8.92
658.118	-12.08
658.15	6.92
658.183	20.92
658.215	-7.08
658.248	-7.08
658.28	14.92
658.313	23.92
658.345	13.92
658.378	0.92
658.41	7.92
658.443	-5.08
658.475	-1.08
658.508	-15.08
658.54	-12.08
658.573	-3.08
658.605	4.92
658.638	-0.08
658.67	-9.08
658.703	2.92
658.735	-12.08
658.768	3.92
658.8	-7.08
658.833	12.92
658.865	7.92
658.898	15.92
658.93	1.92
658.963	14.92
658.995	-11.08
659.028	10.92
659.06	-2.08
659.092	0.92
659.125	-7.08
659.157	16.92
659.19	-7.08
659.222	1.92
659.255	10.92
659.287	4.92
659.32	13.92
659.352	-1.08
659.384	5.92
659.417	-10.08
659.449	-5.08
659.482	-0.08
659.514	-15.08
659.546	4.92
659.579	-0.08
659.611	3.92
659.644	10.92
659.676	-1.08
659.708	-5.08
659.741	-16.08
659.773	9.92
659.806	-1.08
659.838	1.92
659.87	7.92
659.903	-8.08
659.935	9.92
659.967	-1.08
660	15.92
660.032	-24.08
660.065	21.92
660.097	7.92
660.129	2.92
660.162	-12.08
660.194	3.92
660.226	-1.08
660.259	6.92
660.291	-0.08
660.323	7.92
660.356	6.92
660.388	-8.08
660.42	-4.08
660.453	7.92
660.485	16.92
660.517	14.92
660.55	2.92
660.582	3.92
660.614	24.92
660.647	6.92
660.679	-1.08
660.711	-4.08
660.743	-7.08
660.776	-2.08
660.808	-0.08
660.84	1.92
660.873	0.92
660.905	1.92
660.937	-9.08
660.969	4.92
661.002	0.92
661.034	17.92
661.066	5.92
661.099	1.92
661.131	18.92
661.163	0.92
661.195	3.92
661.228	5.92
661.26	11.92
661.292	10.92
661.324	-7.08
661.357	0.92
661.389	11.92
661.421	4.92
661.453	-0.08
661.485	21.92
661.518	12.92
661.55	-10.08
661.582	-12.08
661.614	2.92
661.647	-7.08
661.679	8.92
661.711	-6.08
661.743	-12.08
661.775	-2.08
661.808	20.92
661.84	-15.08
661.872	2.92
661.904	3.92
661.936	6.92
661.969	-8.08
662.001	1.92
662.033	2.92
662.065	1.92
662.097	1.92
662.129	1.92
662.162	-7.08
662.194	-6.08
662.226	-10.08
662.258	6.92
662.29	3.92
662.322	-12.08
662.355	-11.08
662.387	16.92
662.419	6.92
662.451	15.92
662.483	21.92
662.515	-5.08
662.547	2.92
662.58	-0.08
662.612	-4.08
662.644	8.92
662.676	23.92
662.708	8.92
662.74	-9.08
662.772	0.92
662.804	5.92
662.836	11.92
662.869	8.92
662.901	23.92
662.933	18.92
662.965	22.92
662.997	17.92
663.029	-10.08
663.061	-0.08
663.093	15.92
663.125	8.92
663.157	-1.08
663.189	-1.08
663.221	3.92
663.254	9.92
663.286	14.92
663.318	6.92
663.35	-12.08
663.382	-2.08
663.414	9.92
663.446	5.92
663.478	-0.08
663.51	26.92
663.542	-12.08
663.574	-0.08
663.606	5.92
663.638	-7.08
663.67	-6.08
663.702	4.92
663.734	12.92
663.766	11.92
663.798	-0.08
663.83	11.92
663.862	13.92
663.894	10.92
663.926	-9.08
663.958	17.92
663.99	-3.08
664.022	-11.08
664.054	-3.08
664.086	-20.08
664.118	-15.08
664.15	-23.08
664.182	1.92
664.214	5.92
664.246	20.92
664.278	9.92
664.31	12.92
664.342	6.92
664.374	2.92
664.406	6.92
664.438	-6.08
664.47	12.92
664.502	3.92
664.534	3.92
664.566	-0.08
664.598	12.92
664.63	4.92
664.662	2.92
664.693	-1.08
664.725	-6.08
664.757	2.92
664.789	-7.08
664.821	-11.08
664.853	9.92
664.885	2.92
664.917	-2.08
664.949	14.92
664.981	7.92
665.013	10.92
665.045	0.92
665.076	6.92
665.108	9.92
665.14	1.92
665.172	22.92
665.204	4.92
665.236	-0.08
665.268	11.92
665.3	-3.08
665.331	-2.08
665.363	-6.08
665.395	-4.08
665.427	-10.08
665.459	17.92
665.491	10.92
665.523	4.92
665.555	5.92
665.586	8.92
665.618	-15.08
665.65	-4.08
665.682	14.92
665.714	2.92
665.746	-3.08
665.777	-3.08
665.809	-9.08
665.841	7.92
665.873	-9.08
665.905	4.92
665.937	2.92
665.968	-6.08
666	14.92
666.032	12.92
666.064	-4.08
666.096	-8.08
666.127	5.92
666.159	17.92
666.191	22.92
666.223	11.92
666.255	2.92
666.286	2.92
666.318	2.92
666.35	29.92
666.382	1.92
666.413	-1.08
666.445	-13.08
666.477	-14.08
666.509	0.92
666.54	9.92
666.572	-8.08
666.604	-5.08
666.636	-0.08
666.667	20.92
666.699	14.92
666.731	-6.08
666.763	4.92
666.794	-6.08
666.826	-17.08
666.858	-4.08
666.89	17.92
666.921	3.92
666.953	-0.08
666.985	13.92
667.017	17.92
667.048	11.92
667.08	19.92
667.112	0.92
667.143	-13.08
667.175	5.92
667.207	6.92
667.238	2.92
667.27	5.92
667.302	-3.08
667.334	4.92
667.365	20.92
667.397	12.92
667.429	-21.08
667.46	24.92
667.492	11.92
667.524	-2.08
667.555	-13.08
667.587	-7.08
667.619	-4.08
667.65	5.92
667.682	7.92
667.714	21.92
667.745	6.92
667.777	8.92
667.808	1.92
667.84	2.92
667.872	0.92
667.903	14.92
667.935	-13.08
667.967	-4.08
667.998	-9.08
668.03	-0.08
668.061	-5.08
668.093	6.92
668.125	8.92
668.156	10.92
668.188	-1.08
668.22	1.92
668.251	14.92
668.283	12.92
668.314	21.92
668.346	12.92
668.377	23.92
668.409	21.92
668.441	18.92
668.472	6.92
668.504	7.92
668.535	6.92
668.567	15.92
668.599	9.92
668.63	-2.08
668.662	16.92
668.693	16.92
668.725	9.92
668.756	2.92
668.788	-0.08
668.819	8.92
668.851	-13.08
668.882	0.92
668.914	-6.08
668.946	7.92
668.977	13.92
669.009	-12.08
669.04	-9.08
669.072	9.92
669.103	0.92
669.135	-6.08
669.166	2.92
669.198	15.92
669.229	17.92
669.261	-9.08
669.292	-5.08
669.324	8.92
669.355	-5.08
669.387	-1.08
669.418	-6.08
669.45	-15.08
669.481	0.92
669.513	-0.08
669.544	3.92
669.576	11.92
669.607	28.92
669.639	24.92
669.67	-1.08
669.701	13.92
669.733	-15.08
669.764	-2.08
669.796	2.92
669.827	-5.08
669.859	0.92
669.89	14.92
669.922	12.92
669.953	17.92
669.985	29.92
670.016	27.92
670.047	8.92
670.079	7.92
670.11	1.92
670.142	2.92
670.173	0.92
670.204	-5.08
670.236	7.92
670.267	-12.08
670.299	-0.08
670.33	-0.08
670.362	2.92
670.393	-8.08
670.424	14.92
670.456	-20.08
670.487	2.92
670.518	5.92
670.55	9.92
670.581	10.92
670.613	10.92
670.644	-10.08
670.675	-8.08
670.707	-19.08
670.738	0.92
670.769	-1.08
670.801	-0.08
670.832	10.92
670.864	12.92
670.895	9.92
670.926	1.92
670.958	-5.08
670.989	8.92
671.02	8.92
671.052	2.92
671.083	-5.08
671.114	-5.08
671.146	11.92
671.177	9.92
671.208	-12.08
671.24	-11.08
671.271	2.92
671.302	-7.08
671.333	-8.08
671.365	-13.08
671.396	-13.08
671.427	2.92
671.459	-1.08
671.49	3.92
671.521	1.92
671.553	7.92
671.584	6.92
671.615	-0.08
671.646	10.92
671.678	-2.08
671.709	-13.08
671.74	-5.08
671.771	-2.08
671.803	-3.08
671.834	11.92
671.865	-3.08
671.896	11.92
671.928	4.92
671.959	-4.08
671.99	-0.08
672.021	-12.08
672.053	-4.08
672.084	14.92
672.115	15.92
672.146	2.92
672.178	-16.08
672.209	-12.08
672.24	-4.08
672.271	18.92
672.303	10.92
672.334	-6.08
672.365	-3.08
672.396	13.92
672.427	-1.08
672.459	2.92
672.49	19.92
672.521	-1.08
672.552	2.92
672.583	0.92
672.615	-9.08
672.646	10.92
672.677	-0.08
672.708	-5.08
672.739	-11.08
672.77	17.92
672.802	3.92
672.833	-8.08
672.864	8.92
672.895	6.92
672.926	2.92
672.957	-8.08
672.989	-5.08
673.02	5.92
673.051	2.92
673.082	2.92
673.113	-7.08
673.144	-10.08
673.175	-7.08
673.206	2.92
673.238	10.92
673.269	10.92
673.3	-14.08
673.331	10.92
673.362	5.92
673.393	11.92
673.424	0.92
673.455	19.92
673.487	11.92
673.518	8.92
673.549	0.92
673.58	7.92
673.611	-2.08
673.642	0.92
673.673	-17.08
673.704	7.92
673.735	-8.08
673.766	-4.08
673.797	0.92
673.828	10.92
673.86	0.92
673.891	-11.08
673.922	-7.08
673.953	-9.08
673.984	1.92
674.015	-0.08
674.046	5.92
674.077	2.92
674.108	-8.08
674.139	-1.08
674.17	-8.08
674.201	-12.08
674.232	1.92
674.263	-10.08
674.294	13.92
674.325	-9.08
674.356	1.92
674.387	18.92
674.418	2.92
674.449	-7.08
674.48	-9.08
674.511	1.92
674.542	13.92
674.573	-11.08
674.604	9.92
674.635	-0.08
674.666	9.92
674.697	-2.08
674.728	-5.08
674.759	0.92
674.79	-10.08
674.821	-21.08
674.852	-3.08
674.883	-8.08
674.914	2.92
674.945	14.92
674.976	12.92
675.007	-0.08
675.038	-5.08
675.069	-8.08
675.1	-17.08
675.131	9.92
675.162	-7.08
675.193	-19.08
675.224	4.92
675.254	2.92
675.285	-1.08
675.316	4.92
675.347	1.92
675.378	-13.08
675.409	-17.08
675.44	-4.08
675.471	5.92
675.502	2.92
675.533	10.92
675.564	-6.08
675.595	1.92
675.625	14.92
675.656	-3.08
675.687	-1.08
675.718	-7.08
675.749	-2.08
675.78	10.92
675.811	-6.08
675.842	16.92
675.873	0.92
675.903	-0.08
675.934	4.92
675.965	-1.08
675.996	-5.08
676.027	4.92
676.058	8.92
676.089	-14.08
676.119	2.92
676.15	-3.08
676.181	-0.08
676.212	-0.08
676.243	6.92
676.274	5.92
676.304	15.92
676.335	-17.08
676.366	-5.08
676.397	11.92
676.428	4.92
676.459	7.92
676.489	8.92
676.52	8.92
676.551	-0.08
676.582	10.92
676.613	2.92
676.643	-2.08
676.674	6.92
676.705	-3.08
676.736	-0.08
676.767	18.92
676.797	21.92
676.828	2.92
676.859	-11.08
676.89	-5.08
676.92	-10.08
676.951	6.92
676.982	12.92
677.013	3.92
677.044	23.92
677.074	11.92
677.105	-2.08
677.136	3.92
677.167	10.92
677.197	2.92
677.228	16.92
677.259	-9.08
677.289	6.92
677.32	-2.08
677.351	2.92
677.382	0.92
677.412	-4.08
677.443	2.92
677.474	12.92
677.505	-8.08
677.535	7.92
677.566	3.92
677.597	5.92
677.627	2.92
677.658	-1.08
677.689	-1.08
677.72	7.92
677.75	0.92
677.781	-8.08
677.812	6.92
677.842	15.92
677.873	11.92
677.904	8.92
677.934	1.92
677.965	-11.08
677.996	-16.08
678.026	1.92
678.057	1.92
678.088	-15.08
678.118	-0.08
678.149	1.92
678.18	19.92
678.21	-1.08
678.241	2.92
678.272	-8.08
678.302	15.92
678.333	20.92
678.363	8.92
678.394	-0.08
678.425	-8.08
678.455	3.92
678.486	2.92
678.517	5.92
678.547	9.92
678.578	-2.08
678.608	-14.08
678.639	11.92
678.67	8.92
678.7	-12.08
678.731	-8.08
678.761	-7.08
678.792	5.92
678.823	11.92
678.853	6.92
678.884	-9.08
678.914	10.92
678.945	7.92
678.975	-14.08
679.006	7.92
679.037	-8.08
679.067	11.92
679.098	-10.08
679.128	-4.08
679.159	-3.08
679.189	21.92
679.22	-1.08
679.25	11.92
679.281	18.92
679.312	0.92
679.342	16.92
679.373	24.92
679.403	-4.08
679.434	28.92
679.464	2.92
679.495	0.92
679.525	3.92
679.556	-11.08
679.586	9.92
679.617	-0.08
679.647	-4.08
679.678	12.92
679.708	-4.08
679.739	-14.08
679.769	-2.08
679.8	-14.08
679.83	-2.08
679.861	7.92
679.891	-21.08
679.922	-7.08
679.952	-3.08
679.983	30.92
680.013	12.92
680.044	-0.08
680.074	11.92
680.105	25.92
680.135	14.92
680.165	4.92
680.196	3.92
680.226	13.92
680.257	4.92
680.287	6.92
680.318	3.92
680.348	-8.08
680.379	29.92
680.409	6.92
680.439	-9.08
680.47	0.92
680.5	1.92
680.531	6.92
680.561	18.92
680.592	2.92
680.622	8.92
680.652	-1.08
680.683	10.92
680.713	6.92
680.744	-3.08
680.774	-1.08
680.804	24.92
680.835	-5.08
680.865	-7.08
680.896	6.92
680.926	18.92
680.956	11.92
680.987	-1.08
681.017	-10.08
681.047	4.92
681.078	0.92
681.108	-3.08
681.139	2.92
681.169	1.92
681.199	-10.08
681.23	-0.08
681.26	-7.08
681.29	7.92
681.321	-1.08
681.351	-9.08
681.381	-12.08
681.412	1.92
681.442	-0.08
681.472	12.92
681.503	17.92
681.533	3.92
681.563	5.92
681.594	11.92
681.624	12.92
681.654	-11.08
681.685	-2.08
681.715	-10.08
681.745	9.92
681.775	-9.08
681.806	9.92
681.836	0.92
681.866	0.92
681.897	10.92
681.927	3.92
681.957	-15.08
681.987	20.92
682.018	5.92
682.048	-9.08
682.078	-4.08
682.109	9.92
682.139	18.92
682.169	-0.08
682.199	-1.08
682.23	6.92
682.26	2.92
682.29	7.92
682.32	3.92
682.351	-6.08
682.381	2.92
682.411	-6.08
682.441	-1.08
682.472	-9.08
682.502	0.92
682.532	5.92
682.562	-12.08
682.592	3.92
682.623	25.92
682.653	12.92
682.683	-10.08
