Data from HighRes_mercury_15_13_11_07_2024_HR4C61891__67__15-14-29-886.txt Node

Date: Thu Nov 07 15:14:29 EST 2024
User: crc00042
Spectrometer: HR4C6189
Trigger mode: 4
Integration Time (sec): 1.000000E-1
Scans to average: 1
Electric dark correction enabled: true
Nonlinearity correction enabled: false
Boxcar width: 0
XAxis mode: Wavelengths
Number of Pixels in Spectrum: 3648
>>>>>Begin Spectral Data<<<<<
639.567	-52.92
639.602	-52.92
639.636	-52.92
639.67	-44.92
639.704	-22.92
639.738	-4.92
639.773	22.08
639.807	7.08
639.841	8.08
639.875	5.08
639.909	-17.92
639.943	-12.92
639.978	-3.92
640.012	7.08
640.046	0.08
640.08	-5.92
640.114	6.08
640.148	-9.92
640.182	8.08
640.217	-11.92
640.251	6.08
640.285	9.08
640.319	-6.92
640.353	10.08
640.387	-0.92
640.421	-9.92
640.455	-7.92
640.49	-1.92
640.524	-2.92
640.558	-2.92
640.592	-6.92
640.626	2.08
640.66	21.08
640.694	-12.92
640.728	16.08
640.762	-0.92
640.796	14.08
640.83	5.08
640.865	11.08
640.899	-8.92
640.933	-9.92
640.967	-9.92
641.001	-2.92
641.035	-7.92
641.069	-5.92
641.103	-20.92
641.137	1.08
641.171	-4.92
641.205	-13.92
641.239	-7.92
641.273	19.08
641.307	-3.92
641.341	6.08
641.375	-5.92
641.409	-4.92
641.443	13.08
641.477	2.08
641.511	0.08
641.545	1.08
641.579	7.08
641.614	9.08
641.648	16.08
641.682	-2.92
641.716	7.08
641.75	-0.92
641.784	-2.92
641.818	0.08
641.852	3.08
641.886	-15.92
641.919	16.08
641.953	-5.92
641.987	-13.92
642.021	-11.92
642.055	6.08
642.089	21.08
642.123	-4.92
642.157	-1.92
642.191	-2.92
642.225	15.08
642.259	-18.92
642.293	14.08
642.327	6.08
642.361	-0.92
642.395	2.08
642.429	3.08
642.463	15.08
642.497	17.08
642.531	0.08
642.565	-16.92
642.599	3.08
642.633	-8.92
642.666	-2.92
642.7	9.08
642.734	7.08
642.768	-10.92
642.802	-10.92
642.836	-0.92
642.87	-4.92
642.904	11.08
642.938	-0.92
642.972	9.08
643.005	4.08
643.039	10.08
643.073	1.08
643.107	9.08
643.141	-1.92
643.175	12.08
643.209	-4.92
643.243	7.08
643.276	-1.92
643.31	-11.92
643.344	-9.92
643.378	-13.92
643.412	-10.92
643.446	1.08
643.48	-21.92
643.513	-9.92
643.547	9.08
643.581	0.08
643.615	21.08
643.649	5.08
643.683	-5.92
643.716	-7.92
643.75	-0.92
643.784	-25.92
643.818	14.08
643.852	-9.92
643.886	-17.92
643.919	-0.92
643.953	-13.92
643.987	4.08
644.021	-0.92
644.055	2.08
644.088	12.08
644.122	-11.92
644.156	-1.92
644.19	-16.92
644.224	-4.92
644.257	3.08
644.291	7.08
644.325	4.08
644.359	-11.92
644.392	22.08
644.426	13.08
644.46	-4.92
644.494	-7.92
644.527	7.08
644.561	3.08
644.595	-12.92
644.629	-10.92
644.662	-13.92
644.696	14.08
644.73	-8.92
644.764	13.08
644.797	-8.92
644.831	-13.92
644.865	18.08
644.899	-4.92
644.932	15.08
644.966	2.08
645	-1.92
645.033	10.08
645.067	-1.92
645.101	11.08
645.135	-1.92
645.168	-1.92
645.202	-2.92
645.236	-6.92
645.269	11.08
645.303	-0.92
645.337	-15.92
645.37	11.08
645.404	-1.92
645.438	-6.92
645.471	-15.92
645.505	6.08
645.539	2.08
645.572	-5.92
645.606	-21.92
645.64	-2.92
645.673	2.08
645.707	20.08
645.741	2.08
645.774	1.08
645.808	14.08
645.842	-5.92
645.875	3.08
645.909	-6.92
645.943	-13.92
645.976	-3.92
646.01	2.08
646.043	24.08
646.077	-0.92
646.111	0.08
646.144	9.08
646.178	2.08
646.212	-4.92
646.245	-9.92
646.279	6.08
646.312	0.08
646.346	-16.92
646.38	3.08
646.413	14.08
646.447	6.08
646.48	3.08
646.514	6.08
646.547	-11.92
646.581	-8.92
646.615	-1.92
646.648	-2.92
646.682	-8.92
646.715	-8.92
646.749	12.08
646.782	-13.92
646.816	3.08
646.85	0.08
646.883	-11.92
646.917	13.08
646.95	-6.92
646.984	9.08
647.017	0.08
647.051	22.08
647.084	9.08
647.118	-16.92
647.151	-5.92
647.185	-5.92
647.218	1.08
647.252	2.08
647.285	-8.92
647.319	-14.92
647.353	-1.92
647.386	13.08
647.42	13.08
647.453	3.08
647.487	2.08
647.52	1.08
647.553	4.08
647.587	6.08
647.62	-0.92
647.654	-11.92
647.687	2.08
647.721	-12.92
647.754	-5.92
647.788	-7.92
647.821	-26.92
647.855	-5.92
647.888	-14.92
647.922	6.08
647.955	18.08
647.989	1.08
648.022	0.08
648.055	18.08
648.089	-0.92
648.122	0.08
648.156	7.08
648.189	-11.92
648.223	6.08
648.256	8.08
648.29	19.08
648.323	-1.92
648.356	12.08
648.39	1.08
648.423	15.08
648.457	-6.92
648.49	4.08
648.523	6.08
648.557	9.08
648.59	-6.92
648.624	-3.92
648.657	5.08
648.69	17.08
648.724	14.08
648.757	17.08
648.791	13.08
648.824	-4.92
648.857	9.08
648.891	-4.92
648.924	3.08
648.957	9.08
648.991	-25.92
649.024	16.08
649.057	-1.92
649.091	-17.92
649.124	12.08
649.158	9.08
649.191	15.08
649.224	-5.92
649.258	-1.92
649.291	10.08
649.324	0.08
649.358	-1.92
649.391	11.08
649.424	10.08
649.458	-14.92
649.491	-15.92
649.524	-7.92
649.557	-17.92
649.591	-16.92
649.624	4.08
649.657	-13.92
649.691	-10.92
649.724	-16.92
649.757	4.08
649.791	-7.92
649.824	3.08
649.857	23.08
649.89	2.08
649.924	-16.92
649.957	-21.92
649.99	-14.92
650.023	5.08
650.057	-5.92
650.09	-9.92
650.123	-11.92
650.157	13.08
650.19	22.08
650.223	3.08
650.256	-1.92
650.29	-5.92
650.323	1.08
650.356	7.08
650.389	-16.92
650.423	-8.92
650.456	-6.92
650.489	-1.92
650.522	-5.92
650.555	12.08
650.589	0.08
650.622	6.08
650.655	-2.92
650.688	-2.92
650.721	-4.92
650.755	-6.92
650.788	25.08
650.821	-1.92
650.854	3.08
650.887	-4.92
650.921	-12.92
650.954	-16.92
650.987	-2.92
651.02	-22.92
651.053	-8.92
651.087	-22.92
651.12	12.08
651.153	0.08
651.186	-6.92
651.219	-11.92
651.252	8.08
651.286	10.08
651.319	-2.92
651.352	-4.92
651.385	2.08
651.418	-0.92
651.451	6.08
651.484	2.08
651.518	-18.92
651.551	19.08
651.584	-14.92
651.617	14.08
651.65	8.08
651.683	19.08
651.716	9.08
651.749	5.08
651.783	-6.92
651.816	7.08
651.849	-0.92
651.882	-16.92
651.915	-13.92
651.948	3.08
651.981	-4.92
652.014	-20.92
652.047	14.08
652.08	-8.92
652.114	2.08
652.147	-4.92
652.18	-5.92
652.213	36.08
652.246	-12.92
652.279	-8.92
652.312	-4.92
652.345	15.08
652.378	-3.92
652.411	16.08
652.444	-4.92
652.477	9.08
652.51	-4.92
652.543	-21.92
652.576	5.08
652.609	-0.92
652.642	-2.92
652.675	14.08
652.709	-5.92
652.742	-3.92
652.775	4.08
652.808	-0.92
652.841	3.08
652.874	6.08
652.907	1.08
652.94	-12.92
652.973	-12.92
653.006	7.08
653.039	2.08
653.072	5.08
653.105	9.08
653.138	-9.92
653.171	-5.92
653.204	4.08
653.237	-0.92
653.27	-4.92
653.303	-5.92
653.336	-5.92
653.368	-9.92
653.401	-26.92
653.434	-29.92
653.467	4.08
653.5	-8.92
653.533	-6.92
653.566	0.08
653.599	5.08
653.632	-0.92
653.665	17.08
653.698	-18.92
653.731	-15.92
653.764	4.08
653.797	-5.92
653.83	4.08
653.863	-3.92
653.896	-6.92
653.929	-6.92
653.961	4.08
653.994	-5.92
654.027	-21.92
654.06	7.08
654.093	-12.92
654.126	-4.92
654.159	-7.92
654.192	-0.92
654.225	-17.92
654.258	-20.92
654.29	-8.92
654.323	3.08
654.356	4.08
654.389	1.08
654.422	0.08
654.455	5.08
654.488	-10.92
654.521	-19.92
654.553	-21.92
654.586	-2.92
654.619	-3.92
654.652	-2.92
654.685	5.08
654.718	9.08
654.751	6.08
654.783	-8.92
654.816	-4.92
654.849	0.08
654.882	-15.92
654.915	-16.92
654.948	-4.92
654.98	-4.92
655.013	-9.92
655.046	-5.92
655.079	0.08
655.112	10.08
655.144	-15.92
655.177	-8.92
655.21	2.08
655.243	5.08
655.276	2.08
655.308	8.08
655.341	9.08
655.374	-4.92
655.407	-1.92
655.44	2.08
655.472	10.08
655.505	-25.92
655.538	-4.92
655.571	-8.92
655.603	18.08
655.636	2.08
655.669	-0.92
655.702	3.08
655.734	-37.92
655.767	-8.92
655.8	-4.92
655.833	-3.92
655.865	-9.92
655.898	1.08
655.931	-2.92
655.964	-7.92
655.996	5.08
656.029	-3.92
656.062	-10.92
656.095	-8.92
656.127	-18.92
656.16	-10.92
656.193	-8.92
656.225	-4.92
656.258	3.08
656.291	7.08
656.324	17.08
656.356	30.08
656.389	14.08
656.422	15.08
656.454	-9.92
656.487	-7.92
656.52	-3.92
656.552	-11.92
656.585	-5.92
656.618	12.08
656.65	7.08
656.683	-8.92
656.716	5.08
656.748	0.08
656.781	-15.92
656.814	-14.92
656.846	1.08
656.879	-10.92
656.912	-2.92
656.944	-11.92
656.977	-1.92
657.01	-6.92
657.042	4.08
657.075	2.08
657.108	0.08
657.14	11.08
657.173	11.08
657.205	18.08
657.238	6.08
657.271	-6.92
657.303	-4.92
657.336	-6.92
657.369	-15.92
657.401	-7.92
657.434	-13.92
657.466	0.08
657.499	2.08
657.532	-5.92
657.564	10.08
657.597	-2.92
657.629	5.08
657.662	14.08
657.694	-4.92
657.727	-18.92
657.76	-3.92
657.792	-17.92
657.825	-5.92
657.857	2.08
657.89	10.08
657.922	2.08
657.955	3.08
657.987	-1.92
658.02	10.08
658.053	6.08
658.085	-2.92
658.118	-5.92
658.15	2.08
658.183	10.08
658.215	-4.92
658.248	-15.92
658.28	-0.92
658.313	7.08
658.345	-5.92
658.378	4.08
658.41	0.08
658.443	-8.92
658.475	-8.92
658.508	-15.92
658.54	-7.92
658.573	-21.92
658.605	7.08
658.638	-1.92
658.67	-1.92
658.703	0.08
658.735	-11.92
658.768	-0.92
658.8	-11.92
658.833	16.08
658.865	-2.92
658.898	-7.92
658.93	-19.92
658.963	2.08
658.995	-13.92
659.028	-1.92
659.06	0.08
659.092	-6.92
659.125	-11.92
659.157	3.08
659.19	-5.92
659.222	-18.92
659.255	15.08
659.287	-2.92
659.32	-8.92
659.352	-5.92
659.384	13.08
659.417	-9.92
659.449	7.08
659.482	1.08
659.514	-11.92
659.546	-11.92
659.579	-5.92
659.611	-15.92
659.644	2.08
659.676	-25.92
659.708	-5.92
659.741	6.08
659.773	6.08
659.806	-9.92
659.838	-19.92
659.87	4.08
659.903	-8.92
659.935	2.08
659.967	4.08
660	2.08
660.032	-26.92
660.065	14.08
660.097	6.08
660.129	1.08
660.162	-16.92
660.194	0.08
660.226	4.08
660.259	13.08
660.291	1.08
660.323	1.08
660.356	2.08
660.388	-1.92
660.42	9.08
660.453	9.08
660.485	6.08
660.517	1.08
660.55	6.08
660.582	-3.92
660.614	6.08
660.647	-14.92
660.679	-12.92
660.711	9.08
660.743	-13.92
660.776	-12.92
660.808	1.08
660.84	-1.92
660.873	8.08
660.905	2.08
660.937	-5.92
660.969	7.08
661.002	3.08
661.034	4.08
661.066	1.08
661.099	-0.92
661.131	7.08
661.163	13.08
661.195	8.08
661.228	11.08
661.26	-8.92
661.292	1.08
661.324	-5.92
661.357	9.08
661.389	-10.92
661.421	-9.92
661.453	-6.92
661.485	-4.92
661.518	0.08
661.55	-26.92
661.582	-27.92
661.614	-4.92
661.647	0.08
661.679	-14.92
661.711	-16.92
661.743	-20.92
661.775	-4.92
661.808	-0.92
661.84	-15.92
661.872	-0.92
661.904	-7.92
661.936	-4.92
661.969	-17.92
662.001	-2.92
662.033	-0.92
662.065	-5.92
662.097	0.08
662.129	4.08
662.162	-7.92
662.194	-1.92
662.226	2.08
662.258	-8.92
662.29	-11.92
662.322	-26.92
662.355	-21.92
662.387	16.08
662.419	10.08
662.451	5.08
662.483	16.08
662.515	3.08
662.547	-0.92
662.58	-10.92
662.612	-10.92
662.644	-28.92
662.676	-2.92
662.708	17.08
662.74	4.08
662.772	-7.92
662.804	7.08
662.836	6.08
662.869	-9.92
662.901	8.08
662.933	-5.92
662.965	4.08
662.997	4.08
663.029	-12.92
663.061	-5.92
663.093	-6.92
663.125	10.08
663.157	7.08
663.189	-6.92
663.221	0.08
663.254	3.08
663.286	-1.92
663.318	-9.92
663.35	-13.92
663.382	-5.92
663.414	-8.92
663.446	2.08
663.478	-11.92
663.51	10.08
663.542	1.08
663.574	-10.92
663.606	13.08
663.638	2.08
663.67	3.08
663.702	-6.92
663.734	-11.92
663.766	2.08
663.798	-9.92
663.83	-11.92
663.862	11.08
663.894	2.08
663.926	-9.92
663.958	-0.92
663.99	11.08
664.022	-20.92
664.054	17.08
664.086	-10.92
664.118	-10.92
664.15	-21.92
664.182	4.08
664.214	-20.92
664.246	-2.92
664.278	-16.92
664.31	26.08
664.342	3.08
664.374	14.08
664.406	-4.92
664.438	-4.92
664.47	15.08
664.502	-15.92
664.534	-2.92
664.566	-1.92
664.598	7.08
664.63	-0.92
664.662	-5.92
664.693	-3.92
664.725	-14.92
664.757	-2.92
664.789	-11.92
664.821	-4.92
664.853	1.08
664.885	0.08
664.917	-18.92
664.949	12.08
664.981	16.08
665.013	1.08
665.045	-17.92
665.076	-1.92
665.108	-6.92
665.14	-2.92
665.172	-4.92
665.204	-6.92
665.236	-12.92
665.268	-3.92
665.3	-14.92
665.331	-19.92
665.363	1.08
665.395	-13.92
665.427	-0.92
665.459	-2.92
665.491	-13.92
665.523	-9.92
665.555	-2.92
665.586	-8.92
665.618	-0.92
665.65	-18.92
665.682	-5.92
665.714	0.08
665.746	-15.92
665.777	-1.92
665.809	-9.92
665.841	-7.92
665.873	0.08
665.905	9.08
665.937	11.08
665.968	-2.92
666	-5.92
666.032	-6.92
666.064	0.08
666.096	-3.92
666.127	3.08
666.159	-2.92
666.191	-0.92
666.223	-14.92
666.255	-1.92
666.286	4.08
666.318	-7.92
666.35	30.08
666.382	-13.92
666.413	-9.92
666.445	-25.92
666.477	-22.92
666.509	-3.92
666.54	-13.92
666.572	-16.92
666.604	-2.92
666.636	-1.92
666.667	11.08
666.699	21.08
666.731	-6.92
666.763	-24.92
666.794	-4.92
666.826	11.08
666.858	-3.92
666.89	14.08
666.921	3.08
666.953	5.08
666.985	13.08
667.017	16.08
667.048	2.08
667.08	-5.92
667.112	-7.92
667.143	-16.92
667.175	-17.92
667.207	-7.92
667.238	-1.92
667.27	-3.92
667.302	19.08
667.334	7.08
667.365	17.08
667.397	-2.92
667.429	-29.92
667.46	18.08
667.492	12.08
667.524	-5.92
667.555	-13.92
667.587	-9.92
667.619	-20.92
667.65	-19.92
667.682	-9.92
667.714	-1.92
667.745	5.08
667.777	4.08
667.808	-6.92
667.84	-1.92
667.872	2.08
667.903	14.08
667.935	-2.92
667.967	-3.92
667.998	-3.92
668.03	-15.92
668.061	0.08
668.093	-5.92
668.125	0.08
668.156	11.08
668.188	-19.92
668.22	-7.92
668.251	2.08
668.283	2.08
668.314	10.08
668.346	2.08
668.377	11.08
668.409	16.08
668.441	34.08
668.472	14.08
668.504	2.08
668.535	14.08
668.567	7.08
668.599	-0.92
668.63	2.08
668.662	-8.92
668.693	3.08
668.725	-5.92
668.756	-2.92
668.788	2.08
668.819	1.08
668.851	-10.92
668.882	-3.92
668.914	-5.92
668.946	-7.92
668.977	0.08
669.009	-0.92
669.04	-15.92
669.072	-5.92
669.103	-12.92
669.135	2.08
669.166	-3.92
669.198	0.08
669.229	6.08
669.261	-15.92
669.292	-4.92
669.324	1.08
669.355	-3.92
669.387	-18.92
669.418	6.08
669.45	-0.92
669.481	-2.92
669.513	-4.92
669.544	8.08
669.576	-7.92
669.607	14.08
669.639	2.08
669.67	-9.92
669.701	9.08
669.733	-25.92
669.764	-10.92
669.796	2.08
669.827	2.08
669.859	1.08
669.89	-1.92
669.922	16.08
669.953	1.08
669.985	1.08
670.016	-0.92
670.047	1.08
670.079	5.08
670.11	-11.92
670.142	-1.92
670.173	-1.92
670.204	-4.92
670.236	2.08
670.267	-1.92
670.299	-9.92
670.33	-0.92
670.362	-3.92
670.393	-5.92
670.424	4.08
670.456	-9.92
670.487	-3.92
670.518	3.08
670.55	10.08
670.581	0.08
670.613	9.08
670.644	-10.92
670.675	-10.92
670.707	-8.92
670.738	-4.92
670.769	-10.92
670.801	-18.92
670.832	-0.92
670.864	-2.92
670.895	-4.92
670.926	-19.92
670.958	-5.92
670.989	11.08
671.02	-3.92
671.052	-1.92
671.083	3.08
671.114	-7.92
671.146	-0.92
671.177	-0.92
671.208	-18.92
671.24	-8.92
671.271	-0.92
671.302	0.08
671.333	-7.92
671.365	-2.92
671.396	-17.92
671.427	0.08
671.459	13.08
671.49	-0.92
671.521	0.08
671.553	16.08
671.584	20.08
671.615	-11.92
671.646	2.08
671.678	-17.92
671.709	-19.92
671.74	-12.92
671.771	-12.92
671.803	-1.92
671.834	5.08
671.865	-11.92
671.896	5.08
671.928	-6.92
671.959	-18.92
671.99	-4.92
672.021	0.08
672.053	-9.92
672.084	-2.92
672.115	-7.92
672.146	0.08
672.178	-26.92
672.209	-6.92
672.24	-5.92
672.271	-0.92
672.303	10.08
672.334	-5.92
672.365	-4.92
672.396	-2.92
672.427	-2.92
672.459	-9.92
672.49	9.08
672.521	6.08
672.552	10.08
672.583	8.08
672.615	-6.92
672.646	13.08
672.677	2.08
672.708	-0.92
672.739	-10.92
672.77	10.08
672.802	1.08
672.833	-10.92
672.864	-7.92
672.895	-1.92
672.926	-4.92
672.957	-0.92
672.989	-4.92
673.02	0.08
673.051	-8.92
673.082	11.08
673.113	-1.92
673.144	1.08
673.175	-15.92
673.206	-22.92
673.238	-18.92
673.269	-3.92
673.3	-17.92
673.331	1.08
673.362	-2.92
673.393	0.08
673.424	-3.92
673.455	10.08
673.487	-10.92
673.518	8.08
673.549	-22.92
673.58	-8.92
673.611	1.08
673.642	-10.92
673.673	-31.92
673.704	7.08
673.735	-11.92
673.766	-10.92
673.797	-5.92
673.828	3.08
673.86	-8.92
673.891	-10.92
673.922	-4.92
673.953	-0.92
673.984	-1.92
674.015	2.08
674.046	6.08
674.077	6.08
674.108	-24.92
674.139	-8.92
674.17	-12.92
674.201	-8.92
674.232	-12.92
674.263	3.08
674.294	-5.92
674.325	-1.92
674.356	9.08
674.387	6.08
674.418	-8.92
674.449	5.08
674.48	-0.92
674.511	-0.92
674.542	8.08
674.573	-12.92
674.604	-1.92
674.635	-14.92
674.666	-6.92
674.697	-11.92
674.728	-2.92
674.759	0.08
674.79	-8.92
674.821	-20.92
674.852	-13.92
674.883	-10.92
674.914	-3.92
674.945	-8.92
674.976	-2.92
675.007	-16.92
675.038	-20.92
675.069	-14.92
675.1	-5.92
675.131	3.08
675.162	-14.92
675.193	-11.92
675.224	-0.92
675.254	6.08
675.285	4.08
675.316	7.08
675.347	-4.92
675.378	-11.92
675.409	-9.92
675.44	-4.92
675.471	3.08
675.502	1.08
675.533	-6.92
675.564	-11.92
675.595	-11.92
675.625	15.08
675.656	-5.92
675.687	-10.92
675.718	-14.92
675.749	-7.92
675.78	-4.92
675.811	11.08
675.842	10.08
675.873	-10.92
675.903	-3.92
675.934	11.08
675.965	-5.92
675.996	-3.92
676.027	-0.92
676.058	-4.92
676.089	-30.92
676.119	-4.92
676.15	-15.92
676.181	-6.92
676.212	-1.92
676.243	-7.92
676.274	-23.92
676.304	-0.92
676.335	-18.92
676.366	-13.92
676.397	5.08
676.428	0.08
676.459	-10.92
676.489	14.08
676.52	19.08
676.551	-13.92
676.582	-18.92
676.613	-5.92
676.643	-8.92
676.674	-1.92
676.705	-2.92
676.736	15.08
676.767	12.08
676.797	12.08
676.828	-18.92
676.859	3.08
676.89	2.08
676.92	7.08
676.951	8.08
676.982	20.08
677.013	-12.92
677.044	12.08
677.074	2.08
677.105	-2.92
677.136	-2.92
677.167	-11.92
677.197	16.08
677.228	-9.92
677.259	-16.92
677.289	-12.92
677.32	-0.92
677.351	-4.92
677.382	0.08
677.412	-3.92
677.443	8.08
677.474	-0.92
677.505	-28.92
677.535	-9.92
677.566	-22.92
677.597	-1.92
677.627	-17.92
677.658	-28.92
677.689	-15.92
677.72	-1.92
677.75	1.08
677.781	-6.92
677.812	-1.92
677.842	3.08
677.873	21.08
677.904	-8.92
677.934	1.08
677.965	-11.92
677.996	-17.92
678.026	-6.92
678.057	-9.92
678.088	-17.92
678.118	2.08
678.149	-25.92
678.18	-4.92
678.21	-5.92
678.241	9.08
678.272	-10.92
678.302	-17.92
678.333	16.08
678.363	-0.92
678.394	-12.92
678.425	-2.92
678.455	2.08
678.486	10.08
678.517	-0.92
678.547	3.08
678.578	8.08
678.608	-21.92
678.639	10.08
678.67	-5.92
678.7	-2.92
678.731	-9.92
678.761	-1.92
678.792	-0.92
678.823	0.08
678.853	2.08
678.884	-24.92
678.914	-9.92
678.945	6.08
678.975	-10.92
679.006	-5.92
679.037	-5.92
679.067	18.08
679.098	1.08
679.128	-14.92
679.159	11.08
679.189	26.08
679.22	-0.92
679.25	6.08
679.281	-3.92
679.312	8.08
679.342	-9.92
679.373	28.08
679.403	-12.92
679.434	4.08
679.464	0.08
679.495	-5.92
679.525	1.08
679.556	-15.92
679.586	4.08
679.617	6.08
679.647	5.08
679.678	-1.92
679.708	-0.92
679.739	0.08
679.769	-8.92
679.8	-2.92
679.83	14.08
679.861	7.08
679.891	8.08
679.922	-12.92
679.952	-4.92
679.983	12.08
680.013	2.08
680.044	-0.92
680.074	8.08
680.105	10.08
680.135	-0.92
680.165	4.08
680.196	4.08
680.226	4.08
680.257	15.08
680.287	0.08
680.318	-10.92
680.348	-9.92
680.379	2.08
680.409	5.08
680.439	-21.92
680.47	-3.92
680.5	-11.92
680.531	-15.92
680.561	7.08
680.592	9.08
680.622	-4.92
680.652	6.08
680.683	13.08
680.713	3.08
680.744	-1.92
680.774	-12.92
680.804	18.08
680.835	-8.92
680.865	-12.92
680.896	7.08
680.926	9.08
680.956	2.08
680.987	-12.92
681.017	-18.92
681.047	6.08
681.078	-17.92
681.108	-5.92
681.139	-3.92
681.169	-0.92
681.199	-14.92
681.23	8.08
681.26	9.08
681.29	14.08
681.321	-22.92
681.351	9.08
681.381	-3.92
681.412	1.08
681.442	-2.92
681.472	10.08
681.503	-7.92
681.533	2.08
681.563	-5.92
681.594	5.08
681.624	-2.92
681.654	-21.92
681.685	-3.92
681.715	-4.92
681.745	-7.92
681.775	-0.92
681.806	5.08
681.836	-4.92
681.866	-2.92
681.897	11.08
681.927	-4.92
681.957	-21.92
681.987	-5.92
682.018	-6.92
682.048	-10.92
682.078	1.08
682.109	11.08
682.139	15.08
682.169	5.08
