Data from HighRes_mercury_15_13_11_07_2024_HR4C61891__71__15-14-30-286.txt Node

Date: Thu Nov 07 15:14:30 EST 2024
User: crc00042
Spectrometer: HR4C6189
Trigger mode: 4
Integration Time (sec): 1.000000E-1
Scans to average: 1
Electric dark correction enabled: true
Nonlinearity correction enabled: false
Boxcar width: 0
XAxis mode: Wavelengths
Number of Pixels in Spectrum: 3648
>>>>>Begin Spectral Data<<<<<
639.567	-74.92
639.602	-74.92
639.636	-74.92
639.67	-54.92
639.704	-14.92
639.738	6.08
639.773	10.08
639.807	-18.92
639.841	8.08
639.875	21.08
639.909	3.08
639.943	-6.92
639.978	-3.92
640.012	-0.92
640.046	2.08
640.08	0.08
640.114	-1.92
640.148	-17.92
640.182	-7.92
640.217	4.08
640.251	11.08
640.285	1.08
640.319	-16.92
640.353	-12.92
640.387	-1.92
640.421	-10.92
640.455	3.08
640.49	10.08
640.524	-3.92
640.558	-5.92
640.592	-6.92
640.626	-4.92
640.66	6.08
640.694	-11.92
640.728	-7.92
640.762	12.08
640.796	6.08
640.83	12.08
640.865	-9.92
640.899	17.08
640.933	-14.92
640.967	7.08
641.001	17.08
641.035	-9.92
641.069	-16.92
641.103	-8.92
641.137	-10.92
641.171	-11.92
641.205	5.08
641.239	-0.92
641.273	5.08
641.307	2.08
641.341	9.08
641.375	-10.92
641.409	-22.92
641.443	-17.92
641.477	4.08
641.511	5.08
641.545	-4.92
641.579	-18.92
641.614	-3.92
641.648	-6.92
641.682	-24.92
641.716	3.08
641.75	4.08
641.784	-6.92
641.818	-6.92
641.852	3.08
641.886	-4.92
641.919	10.08
641.953	-2.92
641.987	-12.92
642.021	-0.92
642.055	-0.92
642.089	2.08
642.123	-11.92
642.157	6.08
642.191	-5.92
642.225	6.08
642.259	1.08
642.293	-0.92
642.327	6.08
642.361	-19.92
642.395	2.08
642.429	3.08
642.463	16.08
642.497	14.08
642.531	2.08
642.565	-13.92
642.599	11.08
642.633	-17.92
642.666	-8.92
642.7	6.08
642.734	1.08
642.768	-8.92
642.802	-9.92
642.836	-6.92
642.87	-16.92
642.904	9.08
642.938	-2.92
642.972	-7.92
643.005	-13.92
643.039	0.08
643.073	-3.92
643.107	11.08
643.141	-1.92
643.175	0.08
643.209	6.08
643.243	-3.92
643.276	-15.92
643.31	-5.92
643.344	-3.92
643.378	-14.92
643.412	17.08
643.446	7.08
643.48	-11.92
643.513	-3.92
643.547	-13.92
643.581	-4.92
643.615	1.08
643.649	1.08
643.683	12.08
643.716	-11.92
643.75	-1.92
643.784	-19.92
643.818	-2.92
643.852	-6.92
643.886	8.08
643.919	6.08
643.953	-10.92
643.987	3.08
644.021	-13.92
644.055	-0.92
644.088	16.08
644.122	0.08
644.156	-10.92
644.19	-9.92
644.224	-6.92
644.257	4.08
644.291	21.08
644.325	5.08
644.359	-7.92
644.392	22.08
644.426	15.08
644.46	13.08
644.494	5.08
644.527	-0.92
644.561	5.08
644.595	1.08
644.629	-6.92
644.662	-6.92
644.696	7.08
644.73	0.08
644.764	-0.92
644.797	-1.92
644.831	5.08
644.865	9.08
644.899	-6.92
644.932	19.08
644.966	0.08
645	11.08
645.033	10.08
645.067	-8.92
645.101	10.08
645.135	0.08
645.168	-4.92
645.202	-14.92
645.236	-7.92
645.269	18.08
645.303	-1.92
645.337	-8.92
645.37	-4.92
645.404	-1.92
645.438	-12.92
645.471	-0.92
645.505	-6.92
645.539	-6.92
645.572	-3.92
645.606	-0.92
645.64	-1.92
645.673	7.08
645.707	9.08
645.741	-11.92
645.774	-13.92
645.808	-1.92
645.842	-14.92
645.875	-2.92
645.909	-0.92
645.943	9.08
645.976	1.08
646.01	-1.92
646.043	-7.92
646.077	-9.92
646.111	10.08
646.144	8.08
646.178	7.08
646.212	-17.92
646.245	1.08
646.279	12.08
646.312	18.08
646.346	15.08
646.38	0.08
646.413	3.08
646.447	14.08
646.48	2.08
646.514	-0.92
646.547	5.08
646.581	-8.92
646.615	-9.92
646.648	-10.92
646.682	-1.92
646.715	3.08
646.749	2.08
646.782	-13.92
646.816	-7.92
646.85	9.08
646.883	-11.92
646.917	11.08
646.95	12.08
646.984	-5.92
647.017	-13.92
647.051	1.08
647.084	14.08
647.118	-10.92
647.151	-2.92
647.185	-5.92
647.218	-7.92
647.252	4.08
647.285	-14.92
647.319	-33.92
647.353	-11.92
647.386	21.08
647.42	1.08
647.453	-1.92
647.487	-5.92
647.52	-1.92
647.553	6.08
647.587	-15.92
647.62	-8.92
647.654	14.08
647.687	1.08
647.721	-1.92
647.754	0.08
647.788	0.08
647.821	-5.92
647.855	-4.92
647.888	-3.92
647.922	4.08
647.955	-0.92
647.989	2.08
648.022	-3.92
648.055	19.08
648.089	4.08
648.122	22.08
648.156	6.08
648.189	-1.92
648.223	-9.92
648.256	2.08
648.29	11.08
648.323	0.08
648.356	14.08
648.39	14.08
648.423	-2.92
648.457	-19.92
648.49	5.08
648.523	11.08
648.557	-2.92
648.59	-0.92
648.624	6.08
648.657	3.08
648.69	12.08
648.724	12.08
648.757	12.08
648.791	-0.92
648.824	4.08
648.857	20.08
648.891	-1.92
648.924	-9.92
648.957	19.08
648.991	-13.92
649.024	3.08
649.057	-4.92
649.091	-13.92
649.124	9.08
649.158	9.08
649.191	27.08
649.224	-18.92
649.258	5.08
649.291	-2.92
649.324	7.08
649.358	-5.92
649.391	-0.92
649.424	2.08
649.458	-12.92
649.491	12.08
649.524	-26.92
649.557	-11.92
649.591	-13.92
649.624	2.08
649.657	-16.92
649.691	-4.92
649.724	-6.92
649.757	-10.92
649.791	1.08
649.824	2.08
649.857	0.08
649.89	-1.92
649.924	-17.92
649.957	-8.92
649.99	-8.92
650.023	-19.92
650.057	-1.92
650.09	-0.92
650.123	-11.92
650.157	-5.92
650.19	17.08
650.223	-6.92
650.256	-20.92
650.29	-7.92
650.323	-10.92
650.356	7.08
650.389	-9.92
650.423	-18.92
650.456	-10.92
650.489	-7.92
650.522	14.08
650.555	12.08
650.589	20.08
650.622	13.08
650.655	2.08
650.688	17.08
650.721	-10.92
650.755	3.08
650.788	-3.92
650.821	-0.92
650.854	-7.92
650.887	12.08
650.921	-0.92
650.954	-12.92
650.987	-5.92
651.02	-3.92
651.053	-8.92
651.087	-16.92
651.12	23.08
651.153	11.08
651.186	0.08
651.219	7.08
651.252	27.08
651.286	10.08
651.319	-9.92
651.352	1.08
651.385	1.08
651.418	1.08
651.451	9.08
651.484	6.08
651.518	-0.92
651.551	16.08
651.584	-2.92
651.617	30.08
651.65	-4.92
651.683	11.08
651.716	-11.92
651.749	-15.92
651.783	-10.92
651.816	-9.92
651.849	2.08
651.882	-11.92
651.915	-14.92
651.948	-1.92
651.981	-4.92
652.014	-19.92
652.047	-12.92
652.08	-8.92
652.114	-2.92
652.147	-12.92
652.18	2.08
652.213	27.08
652.246	-5.92
652.279	-2.92
652.312	8.08
652.345	-10.92
652.378	-9.92
652.411	13.08
652.444	11.08
652.477	-3.92
652.51	-2.92
652.543	-22.92
652.576	-1.92
652.609	-21.92
652.642	-3.92
652.675	-8.92
652.709	2.08
652.742	-10.92
652.775	-5.92
652.808	1.08
652.841	2.08
652.874	5.08
652.907	-2.92
652.94	-15.92
652.973	-21.92
653.006	-8.92
653.039	-8.92
653.072	0.08
653.105	8.08
653.138	-20.92
653.171	-15.92
653.204	-3.92
653.237	0.08
653.27	5.08
653.303	-10.92
653.336	-4.92
653.368	-17.92
653.401	0.08
653.434	3.08
653.467	1.08
653.5	-12.92
653.533	-18.92
653.566	11.08
653.599	1.08
653.632	18.08
653.665	8.08
653.698	-20.92
653.731	-5.92
653.764	18.08
653.797	-7.92
653.83	-5.92
653.863	-4.92
653.896	-16.92
653.929	-10.92
653.961	-3.92
653.994	5.08
654.027	-18.92
654.06	-13.92
654.093	-3.92
654.126	-1.92
654.159	-20.92
654.192	8.08
654.225	7.08
654.258	-6.92
654.29	-9.92
654.323	2.08
654.356	-5.92
654.389	-12.92
654.422	-7.92
654.455	3.08
654.488	-6.92
654.521	-21.92
654.553	-26.92
654.586	2.08
654.619	14.08
654.652	-3.92
654.685	6.08
654.718	0.08
654.751	6.08
654.783	3.08
654.816	22.08
654.849	-0.92
654.882	-4.92
654.915	-6.92
654.948	-1.92
654.98	-1.92
655.013	-6.92
655.046	5.08
655.079	-12.92
655.112	-7.92
655.144	-19.92
655.177	8.08
655.21	15.08
655.243	3.08
655.276	-3.92
655.308	-12.92
655.341	-11.92
655.374	12.08
655.407	-9.92
655.44	3.08
655.472	-5.92
655.505	-3.92
655.538	-2.92
655.571	7.08
655.603	-12.92
655.636	-19.92
655.669	-2.92
655.702	-10.92
655.734	-9.92
655.767	-9.92
655.8	-1.92
655.833	11.08
655.865	-0.92
655.898	-14.92
655.931	-24.92
655.964	-1.92
655.996	6.08
656.029	1.08
656.062	-12.92
656.095	-6.92
656.127	-13.92
656.16	2.08
656.193	7.08
656.225	-16.92
656.258	-12.92
656.291	0.08
656.324	6.08
656.356	0.08
656.389	1.08
656.422	12.08
656.454	-9.92
656.487	0.08
656.52	-8.92
656.552	11.08
656.585	-2.92
656.618	8.08
656.65	-9.92
656.683	-12.92
656.716	-2.92
656.748	0.08
656.781	-9.92
656.814	-12.92
656.846	11.08
656.879	-23.92
656.912	-6.92
656.944	-14.92
656.977	-10.92
657.01	2.08
657.042	6.08
657.075	13.08
657.108	-10.92
657.14	-3.92
657.173	7.08
657.205	20.08
657.238	8.08
657.271	-4.92
657.303	-3.92
657.336	4.08
657.369	-9.92
657.401	-1.92
657.434	-18.92
657.466	10.08
657.499	-5.92
657.532	1.08
657.564	7.08
657.597	-4.92
657.629	-7.92
657.662	-12.92
657.694	-14.92
657.727	-12.92
657.76	-7.92
657.792	6.08
657.825	-4.92
657.857	-15.92
657.89	-16.92
657.922	-1.92
657.955	-0.92
657.987	-0.92
658.02	-1.92
658.053	3.08
658.085	-5.92
658.118	-4.92
658.15	11.08
658.183	14.08
658.215	-0.92
658.248	-8.92
658.28	-12.92
658.313	11.08
658.345	4.08
658.378	-13.92
658.41	5.08
658.443	-2.92
658.475	-9.92
658.508	-19.92
658.54	-1.92
658.573	-11.92
658.605	-7.92
658.638	-21.92
658.67	-13.92
658.703	0.08
658.735	-26.92
658.768	-7.92
658.8	-6.92
658.833	17.08
658.865	8.08
658.898	-8.92
658.93	0.08
658.963	-8.92
658.995	4.08
659.028	-3.92
659.06	1.08
659.092	5.08
659.125	-2.92
659.157	4.08
659.19	-2.92
659.222	-7.92
659.255	-1.92
659.287	4.08
659.32	3.08
659.352	-3.92
659.384	6.08
659.417	-4.92
659.449	-8.92
659.482	5.08
659.514	-3.92
659.546	7.08
659.579	-7.92
659.611	12.08
659.644	-8.92
659.676	-16.92
659.708	-2.92
659.741	-11.92
659.773	-2.92
659.806	-6.92
659.838	-13.92
659.87	-14.92
659.903	-20.92
659.935	5.08
659.967	2.08
660	13.08
660.032	-8.92
660.065	-1.92
660.097	-11.92
660.129	-8.92
660.162	-11.92
660.194	2.08
660.226	12.08
660.259	0.08
660.291	-20.92
660.323	-5.92
660.356	1.08
660.388	-2.92
660.42	-0.92
660.453	-3.92
660.485	3.08
660.517	4.08
660.55	9.08
660.582	-4.92
660.614	11.08
660.647	-6.92
660.679	-8.92
660.711	5.08
660.743	-4.92
660.776	-17.92
660.808	-17.92
660.84	-9.92
660.873	-7.92
660.905	-2.92
660.937	-5.92
660.969	2.08
661.002	7.08
661.034	26.08
661.066	2.08
661.099	-9.92
661.131	1.08
661.163	-7.92
661.195	7.08
661.228	21.08
661.26	-10.92
661.292	-8.92
661.324	9.08
661.357	-5.92
661.389	0.08
661.421	23.08
661.453	-1.92
661.485	15.08
661.518	9.08
661.55	3.08
661.582	-7.92
661.614	1.08
661.647	-9.92
661.679	-2.92
661.711	10.08
661.743	-4.92
661.775	0.08
661.808	14.08
661.84	-24.92
661.872	-14.92
661.904	-5.92
661.936	-2.92
661.969	6.08
662.001	-11.92
662.033	-0.92
662.065	-6.92
662.097	13.08
662.129	-3.92
662.162	-6.92
662.194	-2.92
662.226	-8.92
662.258	9.08
662.29	-0.92
662.322	1.08
662.355	-22.92
662.387	6.08
662.419	11.08
662.451	10.08
662.483	10.08
662.515	-4.92
662.547	-7.92
662.58	2.08
662.612	-4.92
662.644	-19.92
662.676	3.08
662.708	6.08
662.74	-10.92
662.772	-8.92
662.804	5.08
662.836	8.08
662.869	1.08
662.901	0.08
662.933	-3.92
662.965	-12.92
662.997	11.08
663.029	-6.92
663.061	0.08
663.093	-1.92
663.125	-2.92
663.157	-3.92
663.189	-8.92
663.221	6.08
663.254	-0.92
663.286	1.08
663.318	2.08
663.35	-6.92
663.382	0.08
663.414	18.08
663.446	10.08
663.478	-16.92
663.51	17.08
663.542	-4.92
663.574	3.08
663.606	7.08
663.638	-8.92
663.67	1.08
663.702	-6.92
663.734	-0.92
663.766	-5.92
663.798	-19.92
663.83	-3.92
663.862	6.08
663.894	-5.92
663.926	-12.92
663.958	20.08
663.99	1.08
664.022	-19.92
664.054	9.08
664.086	-7.92
664.118	-20.92
664.15	-8.92
664.182	-6.92
664.214	1.08
664.246	15.08
664.278	1.08
664.31	1.08
664.342	-15.92
664.374	-4.92
664.406	-3.92
664.438	-11.92
664.47	5.08
664.502	-4.92
664.534	-5.92
664.566	-13.92
664.598	15.08
664.63	13.08
664.662	5.08
664.693	-17.92
664.725	-30.92
664.757	-5.92
664.789	-10.92
664.821	-10.92
664.853	11.08
664.885	4.08
664.917	-14.92
664.949	10.08
664.981	25.08
665.013	0.08
665.045	-12.92
665.076	1.08
665.108	0.08
665.14	-4.92
665.172	-7.92
665.204	-9.92
665.236	-3.92
665.268	10.08
665.3	12.08
665.331	3.08
665.363	4.08
665.395	-24.92
665.427	-16.92
665.459	-1.92
665.491	-4.92
665.523	-1.92
665.555	0.08
665.586	-17.92
665.618	10.08
665.65	-27.92
665.682	10.08
665.714	-7.92
665.746	-9.92
665.777	-3.92
665.809	-14.92
665.841	-3.92
665.873	-7.92
665.905	11.08
665.937	21.08
665.968	-2.92
666	-0.92
666.032	13.08
666.064	-4.92
666.096	-4.92
666.127	9.08
666.159	4.08
666.191	7.08
666.223	7.08
666.255	1.08
666.286	-5.92
666.318	0.08
666.35	16.08
666.382	7.08
666.413	-7.92
666.445	-8.92
666.477	-20.92
666.509	9.08
666.54	-21.92
666.572	-19.92
666.604	-7.92
666.636	-0.92
666.667	2.08
666.699	8.08
666.731	2.08
666.763	-2.92
666.794	-17.92
666.826	10.08
666.858	-4.92
666.89	6.08
666.921	10.08
666.953	3.08
666.985	7.08
667.017	20.08
667.048	6.08
667.08	9.08
667.112	3.08
667.143	0.08
667.175	11.08
667.207	-9.92
667.238	-1.92
667.27	-1.92
667.302	-7.92
667.334	-8.92
667.365	6.08
667.397	-12.92
667.429	-13.92
667.46	17.08
667.492	-1.92
667.524	-19.92
667.555	-12.92
667.587	-12.92
667.619	-15.92
667.65	-13.92
667.682	4.08
667.714	8.08
667.745	9.08
667.777	13.08
667.808	21.08
667.84	-3.92
667.872	-3.92
667.903	11.08
667.935	-8.92
667.967	10.08
667.998	2.08
668.03	-9.92
668.061	9.08
668.093	-7.92
668.125	6.08
668.156	5.08
668.188	0.08
668.22	6.08
668.251	16.08
668.283	6.08
668.314	3.08
668.346	0.08
668.377	23.08
668.409	-3.92
668.441	16.08
668.472	8.08
668.504	11.08
668.535	26.08
668.567	25.08
668.599	2.08
668.63	-13.92
668.662	-4.92
668.693	4.08
668.725	-1.92
668.756	2.08
668.788	0.08
668.819	2.08
668.851	-3.92
668.882	-3.92
668.914	-14.92
668.946	2.08
668.977	-2.92
669.009	-2.92
669.04	-5.92
669.072	-7.92
669.103	-1.92
669.135	7.08
669.166	1.08
669.198	-1.92
669.229	2.08
669.261	-7.92
669.292	-7.92
669.324	-2.92
669.355	-1.92
669.387	-14.92
669.418	-0.92
669.45	-3.92
669.481	2.08
669.513	5.08
669.544	10.08
669.576	-14.92
669.607	5.08
669.639	5.08
669.67	-12.92
669.701	13.08
669.733	4.08
669.764	-12.92
669.796	-5.92
669.827	-7.92
669.859	-7.92
669.89	-3.92
669.922	7.08
669.953	-1.92
669.985	5.08
670.016	-0.92
670.047	-2.92
670.079	9.08
670.11	13.08
670.142	3.08
670.173	-3.92
670.204	0.08
670.236	-8.92
670.267	-10.92
670.299	4.08
670.33	-19.92
670.362	4.08
670.393	-20.92
670.424	2.08
670.456	-11.92
670.487	-1.92
670.518	-2.92
670.55	-8.92
670.581	-11.92
670.613	-14.92
670.644	-5.92
670.675	-19.92
670.707	-6.92
670.738	13.08
670.769	4.08
670.801	-13.92
670.832	2.08
670.864	-2.92
670.895	0.08
670.926	-14.92
670.958	-7.92
670.989	-16.92
671.02	-14.92
671.052	-2.92
671.083	21.08
671.114	0.08
671.146	0.08
671.177	1.08
671.208	-11.92
671.24	-23.92
671.271	-14.92
671.302	-3.92
671.333	-3.92
671.365	-12.92
671.396	-10.92
671.427	6.08
671.459	1.08
671.49	-6.92
671.521	-1.92
671.553	-3.92
671.584	-1.92
671.615	-7.92
671.646	5.08
671.678	0.08
671.709	-0.92
671.74	-14.92
671.771	-17.92
671.803	-18.92
671.834	-16.92
671.865	-1.92
671.896	7.08
671.928	-12.92
671.959	-6.92
671.99	-4.92
672.021	5.08
672.053	-16.92
672.084	1.08
672.115	-2.92
672.146	4.08
672.178	-2.92
672.209	-0.92
672.24	-13.92
672.271	9.08
672.303	4.08
672.334	-0.92
672.365	-17.92
672.396	5.08
672.427	9.08
672.459	11.08
672.49	29.08
672.521	-0.92
672.552	-3.92
672.583	2.08
672.615	5.08
672.646	-1.92
672.677	-17.92
672.708	-12.92
672.739	-10.92
672.77	1.08
672.802	-19.92
672.833	1.08
672.864	3.08
672.895	-16.92
672.926	-9.92
672.957	-20.92
672.989	-4.92
673.02	7.08
673.051	-5.92
673.082	9.08
673.113	2.08
673.144	5.08
673.175	-5.92
673.206	-8.92
673.238	-22.92
673.269	-5.92
673.3	-0.92
673.331	2.08
673.362	-7.92
673.393	-4.92
673.424	3.08
673.455	5.08
673.487	-0.92
673.518	8.08
673.549	8.08
673.58	4.08
673.611	4.08
673.642	-8.92
673.673	-30.92
673.704	-14.92
673.735	-10.92
673.766	1.08
673.797	-1.92
673.828	10.08
673.86	-12.92
673.891	-3.92
673.922	-4.92
673.953	-17.92
673.984	9.08
674.015	16.08
674.046	0.08
674.077	-7.92
674.108	-12.92
674.139	-9.92
674.17	-22.92
674.201	-21.92
674.232	-8.92
674.263	-1.92
674.294	-16.92
674.325	-8.92
674.356	-1.92
674.387	16.08
674.418	-2.92
674.449	9.08
674.48	-12.92
674.511	4.08
674.542	-4.92
674.573	-17.92
674.604	0.08
674.635	-9.92
674.666	8.08
674.697	0.08
674.728	3.08
674.759	-0.92
674.79	-29.92
674.821	-9.92
674.852	-7.92
674.883	-4.92
674.914	-17.92
674.945	-7.92
674.976	-7.92
675.007	-11.92
675.038	-23.92
675.069	-11.92
675.1	-18.92
675.131	-13.92
675.162	-26.92
675.193	-14.92
675.224	-16.92
675.254	-9.92
675.285	-0.92
675.316	9.08
675.347	7.08
675.378	-15.92
675.409	-16.92
675.44	-8.92
675.471	4.08
675.502	-12.92
675.533	-10.92
675.564	-3.92
675.595	-15.92
675.625	9.08
675.656	8.08
675.687	9.08
675.718	-9.92
675.749	17.08
675.78	-1.92
675.811	-11.92
675.842	-2.92
675.873	-2.92
675.903	-16.92
675.934	0.08
675.965	-16.92
675.996	-2.92
676.027	-10.92
676.058	-10.92
676.089	-6.92
676.119	-8.92
676.15	-14.92
676.181	-5.92
676.212	-3.92
676.243	4.08
676.274	-7.92
676.304	9.08
676.335	-6.92
676.366	11.08
676.397	3.08
676.428	4.08
676.459	6.08
676.489	2.08
676.52	6.08
676.551	-19.92
676.582	-1.92
676.613	8.08
676.643	-10.92
676.674	-11.92
676.705	-5.92
676.736	-12.92
676.767	6.08
676.797	6.08
676.828	2.08
676.859	-3.92
676.89	-4.92
676.92	-5.92
676.951	-6.92
676.982	-8.92
677.013	-9.92
677.044	2.08
677.074	26.08
677.105	-13.92
677.136	-0.92
677.167	4.08
677.197	0.08
677.228	-21.92
677.259	-25.92
677.289	-17.92
677.32	-33.92
677.351	-13.92
677.382	5.08
677.412	5.08
677.443	-8.92
677.474	-11.92
677.505	-16.92
677.535	-8.92
677.566	-5.92
677.597	-14.92
677.627	-15.92
677.658	-5.92
677.689	-6.92
677.72	0.08
677.75	-6.92
677.781	1.08
677.812	-18.92
677.842	7.08
677.873	-2.92
677.904	-0.92
677.934	-11.92
677.965	-21.92
677.996	-20.92
678.026	-2.92
678.057	-6.92
678.088	-23.92
678.118	0.08
678.149	-15.92
678.18	-8.92
678.21	-4.92
678.241	-1.92
678.272	-17.92
678.302	-0.92
678.333	9.08
678.363	-4.92
678.394	-0.92
678.425	8.08
678.455	0.08
678.486	11.08
678.517	1.08
678.547	-11.92
678.578	-2.92
678.608	-16.92
678.639	9.08
678.67	-1.92
678.7	-0.92
678.731	-5.92
678.761	6.08
678.792	7.08
678.823	-19.92
678.853	-3.92
678.884	-20.92
678.914	3.08
678.945	-14.92
678.975	-10.92
679.006	1.08
679.037	-16.92
679.067	25.08
679.098	-13.92
679.128	-10.92
679.159	2.08
679.189	13.08
679.22	-14.92
679.25	-1.92
679.281	-2.92
679.312	1.08
679.342	-0.92
679.373	12.08
679.403	-5.92
679.434	3.08
679.464	-17.92
679.495	2.08
679.525	8.08
679.556	-2.92
679.586	2.08
679.617	-1.92
679.647	2.08
679.678	-0.92
679.708	-0.92
679.739	-4.92
679.769	-17.92
679.8	5.08
679.83	-1.92
679.861	7.08
679.891	-1.92
679.922	-18.92
679.952	-9.92
679.983	-0.92
680.013	16.08
680.044	-7.92
680.074	17.08
680.105	4.08
680.135	6.08
680.165	-1.92
680.196	2.08
680.226	-9.92
680.257	-4.92
680.287	10.08
680.318	4.08
680.348	-3.92
680.379	12.08
680.409	1.08
680.439	-18.92
680.47	-5.92
680.5	10.08
680.531	-2.92
680.561	10.08
680.592	1.08
680.622	8.08
680.652	0.08
680.683	4.08
680.713	-19.92
680.744	-8.92
680.774	-24.92
680.804	7.08
680.835	2.08
680.865	-8.92
680.896	18.08
680.926	8.08
680.956	2.08
680.987	-8.92
681.017	-11.92
681.047	12.08
681.078	-17.92
681.108	-6.92
681.139	0.08
681.169	10.08
681.199	-0.92
681.23	14.08
681.26	-9.92
681.29	-6.92
681.321	-17.92
681.351	-13.92
681.381	-18.92
681.412	-6.92
681.442	-0.92
681.472	0.08
681.503	2.08
681.533	1.08
681.563	0.08
681.594	0.08
681.624	-4.92
681.654	0.08
681.685	-5.92
681.715	-3.92
681.745	0.08
681.775	-5.92
681.806	-4.92
681.836	-1.92
681.866	-16.92
681.897	-0.92
681.927	3.08
681.957	-20.92
681.987	-3.92
682.018	-8.92
682.048	0.08
682.078	-8.92
682.109	2.08
682.139	-3.92
