Data from HighRes_mercury_15_13_11_07_2024_HR4C61891__78__15-14-30-986.txt Node

Date: Thu Nov 07 15:14:30 EST 2024
User: crc00042
Spectrometer: HR4C6189
Trigger mode: 4
Integration Time (sec): 1.000000E-1
Scans to average: 1
Electric dark correction enabled: true
Nonlinearity correction enabled: false
Boxcar width: 0
XAxis mode: Wavelengths
Number of Pixels in Spectrum: 3648
>>>>>Begin Spectral Data<<<<<
639.567	-20.62
639.602	-20.62
639.636	-20.62
639.67	-38.62
639.704	-14.62
639.738	-1.62
639.773	8.38
639.807	-7.62
639.841	3.38
639.875	15.38
639.909	-0.62
639.943	-8.62
639.978	-15.62
640.012	1.38
640.046	17.38
640.08	4.38
640.114	-2.62
640.148	-13.62
640.182	2.38
640.217	-2.62
640.251	13.38
640.285	12.38
640.319	-11.62
640.353	11.38
640.387	6.38
640.421	10.38
640.455	5.38
640.49	14.38
640.524	14.38
640.558	3.38
640.592	13.38
640.626	10.38
640.66	8.38
640.694	0.38
640.728	15.38
640.762	8.38
640.796	7.38
640.83	23.38
640.865	-1.62
640.899	11.38
640.933	7.38
640.967	21.38
641.001	6.38
641.035	3.38
641.069	7.38
641.103	-5.62
641.137	0.38
641.171	-9.62
641.205	21.38
641.239	3.38
641.273	15.38
641.307	10.38
641.341	4.38
641.375	-4.62
641.409	9.38
641.443	3.38
641.477	1.38
641.511	11.38
641.545	7.38
641.579	3.38
641.614	0.38
641.648	-4.62
641.682	-3.62
641.716	-0.62
641.75	4.38
641.784	9.38
641.818	10.38
641.852	19.38
641.886	-2.62
641.919	17.38
641.953	18.38
641.987	-15.62
642.021	3.38
642.055	-0.62
642.089	7.38
642.123	-7.62
642.157	12.38
642.191	-4.62
642.225	19.38
642.259	4.38
642.293	8.38
642.327	4.38
642.361	-2.62
642.395	13.38
642.429	12.38
642.463	-4.62
642.497	5.38
642.531	8.38
642.565	9.38
642.599	2.38
642.633	-8.62
642.666	14.38
642.7	13.38
642.734	18.38
642.768	-8.62
642.802	-10.62
642.836	8.38
642.87	5.38
642.904	10.38
642.938	10.38
642.972	-5.62
643.005	6.38
643.039	30.38
643.073	7.38
643.107	8.38
643.141	-3.62
643.175	6.38
643.209	3.38
643.243	2.38
643.276	23.38
643.31	-1.62
643.344	2.38
643.378	18.38
643.412	5.38
643.446	8.38
643.48	2.38
643.513	7.38
643.547	-0.62
643.581	3.38
643.615	-10.62
643.649	11.38
643.683	-7.62
643.716	0.38
643.75	-2.62
643.784	-6.62
643.818	12.38
643.852	12.38
643.886	-0.62
643.919	11.38
643.953	13.38
643.987	6.38
644.021	8.38
644.055	4.38
644.088	17.38
644.122	-12.62
644.156	1.38
644.19	-7.62
644.224	8.38
644.257	0.38
644.291	10.38
644.325	9.38
644.359	7.38
644.392	24.38
644.426	14.38
644.46	-2.62
644.494	12.38
644.527	-10.62
644.561	-2.62
644.595	-6.62
644.629	1.38
644.662	-11.62
644.696	13.38
644.73	7.38
644.764	15.38
644.797	8.38
644.831	-5.62
644.865	-2.62
644.899	7.38
644.932	16.38
644.966	2.38
645	21.38
645.033	22.38
645.067	7.38
645.101	16.38
645.135	-2.62
645.168	-0.62
645.202	-7.62
645.236	0.38
645.269	13.38
645.303	-5.62
645.337	4.38
645.37	-14.62
645.404	0.38
645.438	3.38
645.471	1.38
645.505	3.38
645.539	14.38
645.572	-0.62
645.606	-4.62
645.64	3.38
645.673	6.38
645.707	26.38
645.741	4.38
645.774	-1.62
645.808	14.38
645.842	7.38
645.875	6.38
645.909	-4.62
645.943	-5.62
645.976	4.38
646.01	19.38
646.043	0.38
646.077	-0.62
646.111	0.38
646.144	9.38
646.178	1.38
646.212	-10.62
646.245	9.38
646.279	7.38
646.312	7.38
646.346	15.38
646.38	9.38
646.413	15.38
646.447	0.38
646.48	-14.62
646.514	13.38
646.547	8.38
646.581	7.38
646.615	-3.62
646.648	-11.62
646.682	5.38
646.715	-17.62
646.749	11.38
646.782	3.38
646.816	-5.62
646.85	2.38
646.883	-7.62
646.917	5.38
646.95	8.38
646.984	3.38
647.017	0.38
647.051	12.38
647.084	-1.62
647.118	-3.62
647.151	7.38
647.185	-7.62
647.218	2.38
647.252	0.38
647.285	-5.62
647.319	-1.62
647.353	9.38
647.386	28.38
647.42	18.38
647.453	-6.62
647.487	12.38
647.52	6.38
647.553	-1.62
647.587	8.38
647.62	-8.62
647.654	7.38
647.687	10.38
647.721	14.38
647.754	17.38
647.788	4.38
647.821	-4.62
647.855	-2.62
647.888	17.38
647.922	11.38
647.955	11.38
647.989	8.38
648.022	8.38
648.055	7.38
648.089	10.38
648.122	26.38
648.156	10.38
648.189	8.38
648.223	20.38
648.256	17.38
648.29	10.38
648.323	8.38
648.356	10.38
648.39	18.38
648.423	9.38
648.457	14.38
648.49	13.38
648.523	23.38
648.557	0.38
648.59	-8.62
648.624	6.38
648.657	-3.62
648.69	20.38
648.724	-2.62
648.757	25.38
648.791	15.38
648.824	4.38
648.857	27.38
648.891	3.38
648.924	-7.62
648.957	11.38
648.991	-1.62
649.024	24.38
649.057	-1.62
649.091	2.38
649.124	8.38
649.158	6.38
649.191	29.38
649.224	21.38
649.258	13.38
649.291	3.38
649.324	5.38
649.358	10.38
649.391	6.38
649.424	1.38
649.458	-0.62
649.491	5.38
649.524	5.38
649.557	-2.62
649.591	-13.62
649.624	-7.62
649.657	-1.62
649.691	7.38
649.724	-1.62
649.757	3.38
649.791	-14.62
649.824	10.38
649.857	22.38
649.89	8.38
649.924	-11.62
649.957	-4.62
649.99	-6.62
650.023	7.38
650.057	12.38
650.09	22.38
650.123	-11.62
650.157	31.38
650.19	25.38
650.223	9.38
650.256	-15.62
650.29	11.38
650.323	20.38
650.356	4.38
650.389	-2.62
650.423	-13.62
650.456	9.38
650.489	6.38
650.522	20.38
650.555	8.38
650.589	12.38
650.622	10.38
650.655	8.38
650.688	12.38
650.721	9.38
650.755	9.38
650.788	7.38
650.821	4.38
650.854	7.38
650.887	7.38
650.921	-9.62
650.954	-8.62
650.987	6.38
651.02	-0.62
651.053	1.38
651.087	0.38
651.12	21.38
651.153	10.38
651.186	9.38
651.219	-22.62
651.252	4.38
651.286	11.38
651.319	-8.62
651.352	1.38
651.385	0.38
651.418	4.38
651.451	14.38
651.484	6.38
651.518	-7.62
651.551	14.38
651.584	-11.62
651.617	10.38
651.65	13.38
651.683	12.38
651.716	11.38
651.749	2.38
651.783	3.38
651.816	6.38
651.849	10.38
651.882	11.38
651.915	3.38
651.948	19.38
651.981	-3.62
652.014	-8.62
652.047	3.38
652.08	2.38
652.114	-3.62
652.147	-9.62
652.18	4.38
652.213	20.38
652.246	9.38
652.279	-4.62
652.312	9.38
652.345	7.38
652.378	7.38
652.411	9.38
652.444	20.38
652.477	13.38
652.51	-0.62
652.543	-20.62
652.576	2.38
652.609	0.38
652.642	25.38
652.675	5.38
652.709	5.38
652.742	4.38
652.775	4.38
652.808	14.38
652.841	13.38
652.874	1.38
652.907	-2.62
652.94	-11.62
652.973	-11.62
653.006	3.38
653.039	-0.62
653.072	6.38
653.105	-9.62
653.138	-6.62
653.171	-8.62
653.204	-2.62
653.237	-0.62
653.27	4.38
653.303	4.38
653.336	14.38
653.368	-14.62
653.401	19.38
653.434	-9.62
653.467	12.38
653.5	-1.62
653.533	-6.62
653.566	7.38
653.599	2.38
653.632	16.38
653.665	-3.62
653.698	-6.62
653.731	-7.62
653.764	12.38
653.797	-10.62
653.83	17.38
653.863	11.38
653.896	10.38
653.929	-0.62
653.961	8.38
653.994	-9.62
654.027	4.38
654.06	26.38
654.093	20.38
654.126	-1.62
654.159	-1.62
654.192	-0.62
654.225	-2.62
654.258	-13.62
654.29	11.38
654.323	5.38
654.356	5.38
654.389	15.38
654.422	3.38
654.455	4.38
654.488	18.38
654.521	-1.62
654.553	-20.62
654.586	3.38
654.619	8.38
654.652	-20.62
654.685	2.38
654.718	-29.62
654.751	7.38
654.783	1.38
654.816	20.38
654.849	8.38
654.882	2.38
654.915	-6.62
654.948	19.38
654.98	1.38
655.013	-7.62
655.046	-5.62
655.079	-20.62
655.112	-4.62
655.144	-8.62
655.177	6.38
655.21	8.38
655.243	19.38
655.276	3.38
655.308	1.38
655.341	8.38
655.374	-3.62
655.407	-3.62
655.44	-1.62
655.472	2.38
655.505	7.38
655.538	-11.62
655.571	8.38
655.603	18.38
655.636	4.38
655.669	2.38
655.702	9.38
655.734	3.38
655.767	-1.62
655.8	-10.62
655.833	0.38
655.865	9.38
655.898	5.38
655.931	2.38
655.964	-1.62
655.996	2.38
656.029	13.38
656.062	-5.62
656.095	-9.62
656.127	-3.62
656.16	0.38
656.193	1.38
656.225	15.38
656.258	19.38
656.291	15.38
656.324	14.38
656.356	16.38
656.389	-10.62
656.422	7.38
656.454	5.38
656.487	12.38
656.52	7.38
656.552	20.38
656.585	13.38
656.618	9.38
656.65	14.38
656.683	-4.62
656.716	5.38
656.748	8.38
656.781	3.38
656.814	-15.62
656.846	1.38
656.879	-0.62
656.912	-0.62
656.944	-5.62
656.977	5.38
657.01	8.38
657.042	17.38
657.075	12.38
657.108	0.38
657.14	0.38
657.173	34.38
657.205	21.38
657.238	16.38
657.271	11.38
657.303	-0.62
657.336	-7.62
657.369	-6.62
657.401	-4.62
657.434	-2.62
657.466	6.38
657.499	6.38
657.532	7.38
657.564	3.38
657.597	3.38
657.629	-2.62
657.662	-7.62
657.694	7.38
657.727	-8.62
657.76	7.38
657.792	1.38
657.825	-8.62
657.857	-14.62
657.89	3.38
657.922	3.38
657.955	-22.62
657.987	4.38
658.02	11.38
658.053	13.38
658.085	9.38
658.118	14.38
658.15	17.38
658.183	23.38
658.215	-9.62
658.248	-24.62
658.28	-4.62
658.313	19.38
658.345	-2.62
658.378	-7.62
658.41	5.38
658.443	6.38
658.475	-5.62
658.508	-5.62
658.54	-5.62
658.573	0.38
658.605	18.38
658.638	0.38
658.67	6.38
658.703	6.38
658.735	-9.62
658.768	-0.62
658.8	-15.62
658.833	21.38
658.865	13.38
658.898	0.38
658.93	-0.62
658.963	11.38
658.995	-11.62
659.028	-2.62
659.06	1.38
659.092	-1.62
659.125	11.38
659.157	4.38
659.19	-5.62
659.222	-1.62
659.255	4.38
659.287	12.38
659.32	-4.62
659.352	-5.62
659.384	23.38
659.417	-4.62
659.449	14.38
659.482	23.38
659.514	-5.62
659.546	-11.62
659.579	-8.62
659.611	6.38
659.644	-12.62
659.676	-6.62
659.708	-19.62
659.741	1.38
659.773	10.38
659.806	4.38
659.838	6.38
659.87	-0.62
659.903	-6.62
659.935	11.38
659.967	4.38
660	9.38
660.032	-3.62
660.065	22.38
660.097	-6.62
660.129	-12.62
660.162	0.38
660.194	3.38
660.226	22.38
660.259	17.38
660.291	-3.62
660.323	8.38
660.356	25.38
660.388	4.38
660.42	-15.62
660.453	8.38
660.485	17.38
660.517	7.38
660.55	15.38
660.582	1.38
660.614	12.38
660.647	5.38
660.679	-5.62
660.711	14.38
660.743	-7.62
660.776	-7.62
660.808	-7.62
660.84	-7.62
660.873	1.38
660.905	-7.62
660.937	6.38
660.969	-12.62
661.002	-5.62
661.034	11.38
661.066	4.38
661.099	-11.62
661.131	27.38
661.163	15.38
661.195	-7.62
661.228	7.38
661.26	2.38
661.292	10.38
661.324	-2.62
661.357	6.38
661.389	10.38
661.421	6.38
661.453	-10.62
661.485	4.38
661.518	7.38
661.55	0.38
661.582	-15.62
661.614	-10.62
661.647	4.38
661.679	1.38
661.711	1.38
661.743	-3.62
661.775	4.38
661.808	8.38
661.84	-13.62
661.872	-4.62
661.904	-2.62
661.936	3.38
661.969	-1.62
662.001	1.38
662.033	14.38
662.065	-12.62
662.097	5.38
662.129	24.38
662.162	-5.62
662.194	4.38
662.226	12.38
662.258	6.38
662.29	14.38
662.322	-3.62
662.355	0.38
662.387	22.38
662.419	11.38
662.451	2.38
662.483	12.38
662.515	4.38
662.547	-4.62
662.58	3.38
662.612	-2.62
662.644	-9.62
662.676	4.38
662.708	29.38
662.74	1.38
662.772	-8.62
662.804	13.38
662.836	29.38
662.869	-3.62
662.901	13.38
662.933	-1.62
662.965	17.38
662.997	4.38
663.029	-5.62
663.061	-2.62
663.093	5.38
663.125	13.38
663.157	-15.62
663.189	-7.62
663.221	11.38
663.254	0.38
663.286	7.38
663.318	-0.62
663.35	3.38
663.382	0.38
663.414	12.38
663.446	11.38
663.478	-0.62
663.51	18.38
663.542	-5.62
663.574	0.38
663.606	7.38
663.638	-25.62
663.67	-15.62
663.702	-8.62
663.734	7.38
663.766	14.38
663.798	11.38
663.83	8.38
663.862	17.38
663.894	7.38
663.926	-10.62
663.958	12.38
663.99	13.38
664.022	-2.62
664.054	5.38
664.086	0.38
664.118	1.38
664.15	-10.62
664.182	-7.62
664.214	12.38
664.246	20.38
664.278	0.38
664.31	20.38
664.342	2.38
664.374	-5.62
664.406	3.38
664.438	15.38
664.47	24.38
664.502	-2.62
664.534	2.38
664.566	-7.62
664.598	18.38
664.63	0.38
664.662	6.38
664.693	5.38
664.725	-8.62
664.757	4.38
664.789	-1.62
664.821	6.38
664.853	16.38
664.885	-5.62
664.917	5.38
664.949	14.38
664.981	13.38
665.013	8.38
665.045	-7.62
665.076	-2.62
665.108	-4.62
665.14	3.38
665.172	-5.62
665.204	5.38
665.236	-2.62
665.268	2.38
665.3	1.38
665.331	-15.62
665.363	12.38
665.395	-2.62
665.427	-1.62
665.459	11.38
665.491	-3.62
665.523	6.38
665.555	-2.62
665.586	-6.62
665.618	-4.62
665.65	-12.62
665.682	15.38
665.714	10.38
665.746	-6.62
665.777	11.38
665.809	3.38
665.841	12.38
665.873	5.38
665.905	5.38
665.937	26.38
665.968	8.38
666	-2.62
666.032	1.38
666.064	2.38
666.096	3.38
666.127	19.38
666.159	21.38
666.191	10.38
666.223	9.38
666.255	10.38
666.286	-1.62
666.318	11.38
666.35	16.38
666.382	7.38
666.413	-5.62
666.445	-22.62
666.477	-12.62
666.509	-5.62
666.54	16.38
666.572	5.38
666.604	10.38
666.636	14.38
666.667	36.38
666.699	21.38
666.731	4.38
666.763	4.38
666.794	2.38
666.826	13.38
666.858	7.38
666.89	27.38
666.921	5.38
666.953	1.38
666.985	5.38
667.017	23.38
667.048	29.38
667.08	1.38
667.112	-8.62
667.143	-19.62
667.175	10.38
667.207	13.38
667.238	9.38
667.27	9.38
667.302	5.38
667.334	-12.62
667.365	1.38
667.397	-10.62
667.429	9.38
667.46	21.38
667.492	13.38
667.524	-9.62
667.555	4.38
667.587	9.38
667.619	-3.62
667.65	-12.62
667.682	10.38
667.714	9.38
667.745	2.38
667.777	0.38
667.808	-4.62
667.84	5.38
667.872	-11.62
667.903	18.38
667.935	-1.62
667.967	7.38
667.998	5.38
668.03	-5.62
668.061	10.38
668.093	-5.62
668.125	-12.62
668.156	-2.62
668.188	8.38
668.22	-5.62
668.251	6.38
668.283	10.38
668.314	25.38
668.346	6.38
668.377	12.38
668.409	3.38
668.441	29.38
668.472	13.38
668.504	9.38
668.535	18.38
668.567	17.38
668.599	0.38
668.63	1.38
668.662	-11.62
668.693	20.38
668.725	-3.62
668.756	10.38
668.788	22.38
668.819	13.38
668.851	6.38
668.882	-4.62
668.914	-2.62
668.946	-3.62
668.977	-23.62
669.009	-11.62
669.04	-23.62
669.072	-1.62
669.103	10.38
669.135	9.38
669.166	9.38
669.198	4.38
669.229	4.38
669.261	-4.62
669.292	-15.62
669.324	-2.62
669.355	1.38
669.387	-2.62
669.418	-1.62
669.45	-18.62
669.481	-2.62
669.513	5.38
669.544	30.38
669.576	11.38
669.607	9.38
669.639	8.38
669.67	-1.62
669.701	8.38
669.733	3.38
669.764	1.38
669.796	8.38
669.827	5.38
669.859	7.38
669.89	9.38
669.922	12.38
669.953	9.38
669.985	-2.62
670.016	5.38
670.047	3.38
670.079	-3.62
670.11	10.38
670.142	-0.62
670.173	-1.62
670.204	1.38
670.236	10.38
670.267	-4.62
670.299	0.38
670.33	11.38
670.362	-1.62
670.393	-0.62
670.424	10.38
670.456	-20.62
670.487	-9.62
670.518	3.38
670.55	23.38
670.581	9.38
670.613	1.38
670.644	-4.62
670.675	-13.62
670.707	-3.62
670.738	5.38
670.769	3.38
670.801	6.38
670.832	1.38
670.864	0.38
670.895	4.38
670.926	0.38
670.958	19.38
670.989	-1.62
671.02	-13.62
671.052	7.38
671.083	-8.62
671.114	-6.62
671.146	23.38
671.177	16.38
671.208	0.38
671.24	5.38
671.271	-0.62
671.302	23.38
671.333	-2.62
671.365	-6.62
671.396	4.38
671.427	13.38
671.459	10.38
671.49	9.38
671.521	-5.62
671.553	1.38
671.584	22.38
671.615	-2.62
671.646	1.38
671.678	1.38
671.709	-10.62
671.74	-13.62
671.771	3.38
671.803	3.38
671.834	3.38
671.865	-10.62
671.896	-5.62
671.928	-2.62
671.959	-16.62
671.99	2.38
672.021	3.38
672.053	2.38
672.084	11.38
672.115	5.38
672.146	-7.62
672.178	-9.62
672.209	1.38
672.24	4.38
672.271	30.38
672.303	-5.62
672.334	5.38
672.365	-6.62
672.396	3.38
672.427	32.38
672.459	10.38
672.49	18.38
672.521	11.38
672.552	9.38
672.583	5.38
672.615	14.38
672.646	9.38
672.677	-3.62
672.708	-7.62
672.739	1.38
672.77	27.38
672.802	16.38
672.833	-4.62
672.864	12.38
672.895	-2.62
672.926	-5.62
672.957	-6.62
672.989	3.38
673.02	6.38
673.051	0.38
673.082	6.38
673.113	5.38
673.144	11.38
673.175	19.38
673.206	3.38
673.238	0.38
673.269	-6.62
673.3	4.38
673.331	8.38
673.362	0.38
673.393	12.38
673.424	11.38
673.455	25.38
673.487	9.38
673.518	16.38
673.549	8.38
673.58	4.38
673.611	4.38
673.642	0.38
673.673	-13.62
673.704	1.38
673.735	-4.62
673.766	-4.62
673.797	-9.62
673.828	4.38
673.86	-10.62
673.891	-15.62
673.922	-15.62
673.953	-7.62
673.984	1.38
674.015	17.38
674.046	10.38
674.077	0.38
674.108	0.38
674.139	5.38
674.17	0.38
674.201	-2.62
674.232	-0.62
674.263	7.38
674.294	-11.62
674.325	0.38
674.356	23.38
674.387	4.38
674.418	-6.62
674.449	-15.62
674.48	2.38
674.511	22.38
674.542	3.38
674.573	-3.62
674.604	10.38
674.635	-6.62
674.666	8.38
674.697	18.38
674.728	-5.62
674.759	1.38
674.79	-20.62
674.821	-1.62
674.852	0.38
674.883	-1.62
674.914	1.38
674.945	7.38
674.976	4.38
675.007	-7.62
675.038	4.38
675.069	-1.62
675.1	-18.62
675.131	9.38
675.162	-11.62
675.193	-0.62
675.224	7.38
675.254	11.38
675.285	-3.62
675.316	13.38
675.347	8.38
675.378	-4.62
675.409	-19.62
675.44	6.38
675.471	5.38
675.502	6.38
675.533	-16.62
675.564	1.38
675.595	4.38
675.625	29.38
675.656	9.38
675.687	-2.62
675.718	-4.62
675.749	10.38
675.78	5.38
675.811	-1.62
675.842	-13.62
675.873	-12.62
675.903	1.38
675.934	5.38
675.965	-1.62
675.996	-5.62
676.027	7.38
676.058	5.38
676.089	-5.62
676.119	-3.62
676.15	-11.62
676.181	4.38
676.212	-16.62
676.243	2.38
676.274	1.38
676.304	17.38
676.335	-2.62
676.366	6.38
676.397	-8.62
676.428	-5.62
676.459	12.38
676.489	12.38
676.52	1.38
676.551	3.38
676.582	-6.62
676.613	13.38
676.643	-5.62
676.674	25.38
676.705	14.38
676.736	-1.62
676.767	22.38
676.797	23.38
676.828	4.38
676.859	0.38
676.89	-10.62
676.92	8.38
676.951	5.38
676.982	0.38
677.013	7.38
677.044	8.38
677.074	11.38
677.105	-5.62
677.136	8.38
677.167	-8.62
677.197	13.38
677.228	-10.62
677.259	-11.62
677.289	3.38
677.32	7.38
677.351	-1.62
677.382	-3.62
677.412	-12.62
677.443	9.38
677.474	3.38
677.505	-11.62
677.535	8.38
677.566	-4.62
677.597	-6.62
677.627	-13.62
677.658	-2.62
677.689	4.38
677.72	7.38
677.75	-3.62
677.781	18.38
677.812	12.38
677.842	9.38
677.873	13.38
677.904	8.38
677.934	-2.62
677.965	3.38
677.996	-5.62
678.026	10.38
678.057	-4.62
678.088	-18.62
678.118	-12.62
678.149	-20.62
678.18	0.38
678.21	13.38
678.241	2.38
678.272	-3.62
678.302	-6.62
678.333	9.38
678.363	9.38
678.394	-0.62
678.425	-7.62
678.455	8.38
678.486	17.38
678.517	-2.62
678.547	3.38
678.578	7.38
678.608	-5.62
678.639	-2.62
678.67	8.38
678.7	-4.62
678.731	-4.62
678.761	-7.62
678.792	7.38
678.823	9.38
678.853	2.38
678.884	4.38
678.914	7.38
678.945	16.38
678.975	-7.62
679.006	5.38
679.037	-6.62
679.067	16.38
679.098	12.38
679.128	-26.62
679.159	-7.62
679.189	17.38
679.22	-1.62
679.25	6.38
679.281	-4.62
679.312	-16.62
679.342	1.38
679.373	18.38
679.403	-3.62
679.434	-2.62
679.464	-8.62
679.495	0.38
679.525	-7.62
679.556	19.38
679.586	-0.62
679.617	12.38
679.647	4.38
679.678	8.38
679.708	8.38
679.739	0.38
679.769	5.38
679.8	-0.62
679.83	-11.62
679.861	15.38
679.891	1.38
679.922	-18.62
679.952	-1.62
679.983	10.38
680.013	22.38
680.044	3.38
680.074	-0.62
680.105	1.38
680.135	1.38
680.165	12.38
680.196	10.38
680.226	9.38
680.257	19.38
680.287	-0.62
680.318	1.38
680.348	2.38
680.379	5.38
680.409	4.38
680.439	0.38
680.47	-9.62
680.5	-2.62
680.531	-6.62
680.561	-6.62
680.592	13.38
680.622	20.38
680.652	15.38
680.683	16.38
680.713	1.38
680.744	6.38
680.774	4.38
680.804	30.38
680.835	-2.62
680.865	-22.62
680.896	17.38
680.926	8.38
680.956	11.38
680.987	18.38
681.017	-2.62
681.047	1.38
681.078	-4.62
681.108	-8.62
681.139	-1.62
681.169	-11.62
681.199	-5.62
681.23	6.38
681.26	14.38
681.29	2.38
681.321	7.38
681.351	3.38
681.381	-9.62
681.412	10.38
681.442	3.38
681.472	10.38
681.503	11.38
681.533	13.38
681.563	12.38
681.594	13.38
681.624	23.38
681.654	2.38
681.685	4.38
681.715	3.38
681.745	-0.62
681.775	6.38
681.806	14.38
681.836	10.38
681.866	12.38
681.897	8.38
681.927	0.38
681.957	-20.62
681.987	7.38
682.018	9.38
682.048	-2.62
682.078	-1.62
682.109	17.38
682.139	15.38
682.169	7.38
682.199	0.38
682.23	-11.62
682.26	5.38
682.29	-8.62
682.32	5.38
682.351	2.38
682.381	3.38
682.411	-16.62
682.441	2.38
682.472	-0.62
682.502	3.38
682.532	3.38
682.562	13.38
682.592	22.38
682.623	23.38
682.653	-4.62
682.683	3.38
682.713	3.38
682.743	-11.62
682.774	-8.62
682.804	0.38
