Data from HighRes_mercury_15_13_11_07_2024_HR4C61891__30__15-14-26-186.txt Node

Date: Thu Nov 07 15:14:26 EST 2024
User: crc00042
Spectrometer: HR4C6189
Trigger mode: 4
Integration Time (sec): 1.000000E-1
Scans to average: 1
Electric dark correction enabled: true
Nonlinearity correction enabled: false
Boxcar width: 0
XAxis mode: Wavelengths
Number of Pixels in Spectrum: 3648
>>>>>Begin Spectral Data<<<<<
639.567	-54.23
639.602	-54.23
639.636	-54.23
639.67	-39.23
639.704	-25.23
639.738	2.77
639.773	10.77
639.807	-26.23
639.841	2.77
639.875	7.77
639.909	9.77
639.943	-11.23
639.978	-9.23
640.012	3.77
640.046	15.77
640.08	-11.23
640.114	14.77
640.148	-10.23
640.182	-6.23
640.217	-12.23
640.251	22.77
640.285	3.77
640.319	-23.23
640.353	-2.23
640.387	-4.23
640.421	5.77
640.455	-19.23
640.49	-23.23
640.524	-9.23
640.558	0.77
640.592	-3.23
640.626	3.77
640.66	7.77
640.694	3.77
640.728	13.77
640.762	-0.23
640.796	6.77
640.83	21.77
640.865	0.77
640.899	5.77
640.933	-2.23
640.967	4.77
641.001	4.77
641.035	11.77
641.069	-2.23
641.103	-18.23
641.137	-9.23
641.171	-6.23
641.205	2.77
641.239	-0.23
641.273	21.77
641.307	16.77
641.341	-1.23
641.375	-2.23
641.409	-8.23
641.443	4.77
641.477	7.77
641.511	4.77
641.545	12.77
641.579	0.77
641.614	16.77
641.648	1.77
641.682	3.77
641.716	10.77
641.75	11.77
641.784	-1.23
641.818	-5.23
641.852	3.77
641.886	-17.23
641.919	25.77
641.953	-7.23
641.987	-8.23
642.021	-10.23
642.055	12.77
642.089	-7.23
642.123	-11.23
642.157	-4.23
642.191	-5.23
642.225	13.77
642.259	-3.23
642.293	12.77
642.327	15.77
642.361	-5.23
642.395	3.77
642.429	19.77
642.463	-1.23
642.497	8.77
642.531	11.77
642.565	-11.23
642.599	3.77
642.633	-18.23
642.666	14.77
642.7	28.77
642.734	13.77
642.768	-1.23
642.802	-5.23
642.836	-1.23
642.87	-12.23
642.904	22.77
642.938	19.77
642.972	4.77
643.005	6.77
643.039	26.77
643.073	3.77
643.107	4.77
643.141	7.77
643.175	7.77
643.209	-3.23
643.243	1.77
643.276	-1.23
643.31	-1.23
643.344	0.77
643.378	4.77
643.412	9.77
643.446	1.77
643.48	-5.23
643.513	6.77
643.547	2.77
643.581	9.77
643.615	10.77
643.649	7.77
643.683	6.77
643.716	-6.23
643.75	6.77
643.784	-21.23
643.818	-5.23
643.852	-7.23
643.886	15.77
643.919	6.77
643.953	5.77
643.987	5.77
644.021	-2.23
644.055	3.77
644.088	-13.23
644.122	-1.23
644.156	-5.23
644.19	-1.23
644.224	-5.23
644.257	10.77
644.291	16.77
644.325	7.77
644.359	-6.23
644.392	14.77
644.426	5.77
644.46	-0.23
644.494	-1.23
644.527	11.77
644.561	-2.23
644.595	7.77
644.629	-7.23
644.662	-17.23
644.696	21.77
644.73	8.77
644.764	1.77
644.797	3.77
644.831	0.77
644.865	3.77
644.899	-6.23
644.932	22.77
644.966	-4.23
645	1.77
645.033	10.77
645.067	-11.23
645.101	-0.23
645.135	0.77
645.168	-10.23
645.202	-17.23
645.236	-9.23
645.269	12.77
645.303	-9.23
645.337	-10.23
645.37	-26.23
645.404	-15.23
645.438	1.77
645.471	-1.23
645.505	7.77
645.539	-6.23
645.572	-5.23
645.606	-13.23
645.64	1.77
645.673	-1.23
645.707	-7.23
645.741	-4.23
645.774	0.77
645.808	1.77
645.842	-9.23
645.875	5.77
645.909	-2.23
645.943	12.77
645.976	13.77
646.01	0.77
646.043	11.77
646.077	6.77
646.111	-2.23
646.144	1.77
646.178	2.77
646.212	-17.23
646.245	6.77
646.279	0.77
646.312	-15.23
646.346	6.77
646.38	-13.23
646.413	-8.23
646.447	4.77
646.48	-15.23
646.514	4.77
646.547	-23.23
646.581	-8.23
646.615	8.77
646.648	-12.23
646.682	6.77
646.715	-1.23
646.749	7.77
646.782	-1.23
646.816	-9.23
646.85	0.77
646.883	-3.23
646.917	13.77
646.95	8.77
646.984	-3.23
647.017	-2.23
647.051	12.77
647.084	9.77
647.118	7.77
647.151	16.77
647.185	9.77
647.218	-8.23
647.252	-0.23
647.285	-12.23
647.319	-13.23
647.353	-7.23
647.386	14.77
647.42	-0.23
647.453	-1.23
647.487	-1.23
647.52	-4.23
647.553	0.77
647.587	2.77
647.62	1.77
647.654	4.77
647.687	0.77
647.721	0.77
647.754	-25.23
647.788	-0.23
647.821	-9.23
647.855	8.77
647.888	8.77
647.922	11.77
647.955	14.77
647.989	4.77
648.022	3.77
648.055	3.77
648.089	-7.23
648.122	30.77
648.156	0.77
648.189	5.77
648.223	26.77
648.256	20.77
648.29	7.77
648.323	-1.23
648.356	2.77
648.39	-9.23
648.423	3.77
648.457	7.77
648.49	1.77
648.523	-8.23
648.557	-19.23
648.59	-5.23
648.624	-10.23
648.657	-3.23
648.69	-15.23
648.724	-4.23
648.757	4.77
648.791	19.77
648.824	5.77
648.857	33.77
648.891	-1.23
648.924	5.77
648.957	20.77
648.991	-18.23
649.024	3.77
649.057	-7.23
649.091	-3.23
649.124	8.77
649.158	10.77
649.191	32.77
649.224	-0.23
649.258	16.77
649.291	19.77
649.324	2.77
649.358	12.77
649.391	14.77
649.424	14.77
649.458	-11.23
649.491	-8.23
649.524	-3.23
649.557	-0.23
649.591	-20.23
649.624	3.77
649.657	-16.23
649.691	3.77
649.724	-2.23
649.757	-1.23
649.791	-7.23
649.824	17.77
649.857	0.77
649.89	-2.23
649.924	-5.23
649.957	-2.23
649.99	-11.23
650.023	-7.23
650.057	-6.23
650.09	-0.23
650.123	-0.23
650.157	-0.23
650.19	10.77
650.223	-4.23
650.256	-20.23
650.29	-19.23
650.323	-0.23
650.356	7.77
650.389	-7.23
650.423	-2.23
650.456	-1.23
650.489	2.77
650.522	-4.23
650.555	15.77
650.589	6.77
650.622	-0.23
650.655	0.77
650.688	13.77
650.721	-3.23
650.755	-3.23
650.788	1.77
650.821	7.77
650.854	-6.23
650.887	0.77
650.921	-17.23
650.954	-28.23
650.987	2.77
651.02	-16.23
651.053	-20.23
651.087	-9.23
651.12	22.77
651.153	1.77
651.186	-1.23
651.219	-10.23
651.252	17.77
651.286	12.77
651.319	-0.23
651.352	6.77
651.385	2.77
651.418	2.77
651.451	-7.23
651.484	-1.23
651.518	-1.23
651.551	21.77
651.584	-11.23
651.617	25.77
651.65	-4.23
651.683	9.77
651.716	-2.23
651.749	-9.23
651.783	-11.23
651.816	-8.23
651.849	12.77
651.882	-2.23
651.915	-9.23
651.948	6.77
651.981	-13.23
652.014	-11.23
652.047	-9.23
652.08	-18.23
652.114	-10.23
652.147	-14.23
652.18	2.77
652.213	15.77
652.246	0.77
652.279	-2.23
652.312	6.77
652.345	-18.23
652.378	2.77
652.411	10.77
652.444	0.77
652.477	-9.23
652.51	11.77
652.543	-9.23
652.576	-1.23
652.609	3.77
652.642	-2.23
652.675	7.77
652.709	8.77
652.742	8.77
652.775	4.77
652.808	23.77
652.841	12.77
652.874	-11.23
652.907	-12.23
652.94	-8.23
652.973	-26.23
653.006	-1.23
653.039	-8.23
653.072	-3.23
653.105	3.77
653.138	-15.23
653.171	5.77
653.204	-0.23
653.237	7.77
653.27	0.77
653.303	7.77
653.336	16.77
653.368	-0.23
653.401	-9.23
653.434	-0.23
653.467	5.77
653.5	-15.23
653.533	-22.23
653.566	-9.23
653.599	-9.23
653.632	-2.23
653.665	1.77
653.698	-0.23
653.731	-16.23
653.764	-5.23
653.797	-0.23
653.83	-19.23
653.863	-0.23
653.896	-1.23
653.929	-3.23
653.961	-13.23
653.994	-4.23
654.027	-15.23
654.06	0.77
654.093	2.77
654.126	-2.23
654.159	-27.23
654.192	-1.23
654.225	-0.23
654.258	-4.23
654.29	-14.23
654.323	-2.23
654.356	-7.23
654.389	3.77
654.422	-11.23
654.455	-8.23
654.488	-5.23
654.521	-15.23
654.553	-18.23
654.586	-1.23
654.619	-7.23
654.652	1.77
654.685	17.77
654.718	12.77
654.751	-0.23
654.783	-15.23
654.816	14.77
654.849	-5.23
654.882	-8.23
654.915	-24.23
654.948	-6.23
654.98	-3.23
655.013	3.77
655.046	-8.23
655.079	-8.23
655.112	15.77
655.144	-6.23
655.177	3.77
655.21	24.77
655.243	13.77
655.276	15.77
655.308	1.77
655.341	-1.23
655.374	3.77
655.407	-1.23
655.44	-5.23
655.472	15.77
655.505	3.77
655.538	-3.23
655.571	6.77
655.603	1.77
655.636	-19.23
655.669	4.77
655.702	3.77
655.734	-12.23
655.767	2.77
655.8	2.77
655.833	-15.23
655.865	14.77
655.898	-12.23
655.931	-15.23
655.964	2.77
655.996	-8.23
656.029	6.77
656.062	-15.23
656.095	10.77
656.127	-7.23
656.16	-2.23
656.193	-3.23
656.225	4.77
656.258	-0.23
656.291	-3.23
656.324	3.77
656.356	14.77
656.389	2.77
656.422	13.77
656.454	-6.23
656.487	-4.23
656.52	1.77
656.552	1.77
656.585	12.77
656.618	-4.23
656.65	-2.23
656.683	-13.23
656.716	-1.23
656.748	-14.23
656.781	2.77
656.814	-18.23
656.846	7.77
656.879	-1.23
656.912	-15.23
656.944	-8.23
656.977	-25.23
657.01	-3.23
657.042	14.77
657.075	11.77
657.108	-7.23
657.14	0.77
657.173	9.77
657.205	22.77
657.238	2.77
657.271	-6.23
657.303	-4.23
657.336	3.77
657.369	-7.23
657.401	1.77
657.434	2.77
657.466	3.77
657.499	-1.23
657.532	-12.23
657.564	-5.23
657.597	-11.23
657.629	0.77
657.662	10.77
657.694	-25.23
657.727	-10.23
657.76	7.77
657.792	1.77
657.825	1.77
657.857	-3.23
657.89	-8.23
657.922	12.77
657.955	-2.23
657.987	-3.23
658.02	0.77
658.053	9.77
658.085	1.77
658.118	-6.23
658.15	-2.23
658.183	9.77
658.215	11.77
658.248	-13.23
658.28	-17.23
658.313	19.77
658.345	8.77
658.378	11.77
658.41	3.77
658.443	-3.23
658.475	-7.23
658.508	-9.23
658.54	2.77
658.573	-0.23
658.605	-7.23
658.638	-0.23
658.67	4.77
658.703	-1.23
658.735	-24.23
658.768	5.77
658.8	-29.23
658.833	6.77
658.865	9.77
658.898	-14.23
658.93	-2.23
658.963	-4.23
658.995	-7.23
659.028	0.77
659.06	1.77
659.092	-15.23
659.125	3.77
659.157	-3.23
659.19	-13.23
659.222	-5.23
659.255	-1.23
659.287	4.77
659.32	-17.23
659.352	-0.23
659.384	11.77
659.417	-1.23
659.449	-9.23
659.482	22.77
659.514	1.77
659.546	-1.23
659.579	-11.23
659.611	6.77
659.644	-1.23
659.676	-4.23
659.708	-15.23
659.741	-10.23
659.773	-1.23
659.806	-2.23
659.838	-2.23
659.87	3.77
659.903	1.77
659.935	11.77
659.967	16.77
660	10.77
660.032	-16.23
660.065	6.77
660.097	-3.23
660.129	-1.23
660.162	-18.23
660.194	3.77
660.226	11.77
660.259	4.77
660.291	12.77
660.323	-3.23
660.356	-5.23
660.388	6.77
660.42	3.77
660.453	1.77
660.485	5.77
660.517	21.77
660.55	19.77
660.582	-0.23
660.614	7.77
660.647	6.77
660.679	-15.23
660.711	4.77
660.743	-0.23
660.776	-7.23
660.808	-13.23
660.84	-1.23
660.873	6.77
660.905	-8.23
660.937	8.77
660.969	6.77
661.002	-5.23
661.034	18.77
661.066	3.77
661.099	14.77
661.131	1.77
661.163	8.77
661.195	5.77
661.228	-1.23
661.26	-3.23
661.292	-7.23
661.324	15.77
661.357	-2.23
661.389	-2.23
661.421	9.77
661.453	1.77
661.485	-11.23
661.518	7.77
661.55	-15.23
661.582	-27.23
661.614	-0.23
661.647	12.77
661.679	-18.23
661.711	-4.23
661.743	9.77
661.775	2.77
661.808	17.77
661.84	-12.23
661.872	6.77
661.904	-4.23
661.936	-9.23
661.969	-12.23
662.001	-16.23
662.033	-6.23
662.065	6.77
662.097	11.77
662.129	7.77
662.162	6.77
662.194	13.77
662.226	-0.23
662.258	15.77
662.29	8.77
662.322	-6.23
662.355	-14.23
662.387	10.77
662.419	-6.23
662.451	17.77
662.483	1.77
662.515	0.77
662.547	0.77
662.58	-6.23
662.612	-9.23
662.644	-5.23
662.676	0.77
662.708	18.77
662.74	9.77
662.772	6.77
662.804	6.77
662.836	5.77
662.869	-5.23
662.901	2.77
662.933	1.77
662.965	11.77
662.997	20.77
663.029	-25.23
663.061	-19.23
663.093	-4.23
663.125	-1.23
663.157	10.77
663.189	6.77
663.221	8.77
663.254	1.77
663.286	17.77
663.318	-12.23
663.35	-24.23
663.382	-8.23
663.414	11.77
663.446	-5.23
663.478	-16.23
663.51	20.77
663.542	-3.23
663.574	10.77
663.606	-12.23
663.638	2.77
663.67	-5.23
663.702	2.77
663.734	5.77
663.766	2.77
663.798	-13.23
663.83	0.77
663.862	7.77
663.894	14.77
663.926	0.77
663.958	-1.23
663.99	2.77
664.022	-21.23
664.054	-5.23
664.086	-17.23
664.118	-1.23
664.15	-14.23
664.182	-4.23
664.214	3.77
664.246	16.77
664.278	7.77
664.31	13.77
664.342	-4.23
664.374	5.77
664.406	0.77
664.438	1.77
664.47	16.77
664.502	0.77
664.534	-12.23
664.566	-19.23
664.598	1.77
664.63	-21.23
664.662	-0.23
664.693	8.77
664.725	-14.23
664.757	4.77
664.789	-16.23
664.821	5.77
664.853	18.77
664.885	8.77
664.917	5.77
664.949	-1.23
664.981	21.77
665.013	5.77
665.045	-9.23
665.076	-5.23
665.108	-0.23
665.14	-16.23
665.172	1.77
665.204	-15.23
665.236	-9.23
665.268	8.77
665.3	4.77
665.331	-5.23
665.363	-0.23
665.395	-12.23
665.427	-1.23
665.459	0.77
665.491	0.77
665.523	-11.23
665.555	7.77
665.586	15.77
665.618	-18.23
665.65	-30.23
665.682	2.77
665.714	-4.23
665.746	-5.23
665.777	-11.23
665.809	-11.23
665.841	10.77
665.873	-15.23
665.905	1.77
665.937	14.77
665.968	-6.23
666	-10.23
666.032	1.77
666.064	-8.23
666.096	-11.23
666.127	-7.23
666.159	13.77
666.191	3.77
666.223	-0.23
666.255	8.77
666.286	2.77
666.318	-8.23
666.35	9.77
666.382	5.77
666.413	3.77
666.445	-16.23
666.477	-12.23
666.509	-5.23
666.54	0.77
666.572	-6.23
666.604	1.77
666.636	-8.23
666.667	7.77
666.699	24.77
666.731	-2.23
666.763	-12.23
666.794	-1.23
666.826	6.77
666.858	-12.23
666.89	7.77
666.921	3.77
666.953	-0.23
666.985	13.77
667.017	4.77
667.048	-5.23
667.08	-3.23
667.112	-7.23
667.143	-4.23
667.175	-5.23
667.207	-0.23
667.238	-1.23
667.27	-0.23
667.302	6.77
667.334	2.77
667.365	13.77
667.397	-0.23
667.429	-6.23
667.46	28.77
667.492	-4.23
667.524	-8.23
667.555	-27.23
667.587	-3.23
667.619	5.77
667.65	-6.23
667.682	-7.23
667.714	-2.23
667.745	1.77
667.777	-1.23
667.808	8.77
667.84	8.77
667.872	-11.23
667.903	29.77
667.935	-2.23
667.967	-4.23
667.998	-18.23
668.03	-15.23
668.061	10.77
668.093	-16.23
668.125	4.77
668.156	13.77
668.188	7.77
668.22	-1.23
668.251	-19.23
668.283	-3.23
668.314	13.77
668.346	1.77
668.377	12.77
668.409	18.77
668.441	38.77
668.472	12.77
668.504	11.77
668.535	7.77
668.567	7.77
668.599	-9.23
668.63	3.77
668.662	-9.23
668.693	19.77
668.725	7.77
668.756	16.77
668.788	6.77
668.819	-0.23
668.851	-8.23
668.882	-8.23
668.914	-2.23
668.946	9.77
668.977	-9.23
669.009	-14.23
669.04	-23.23
669.072	2.77
669.103	14.77
669.135	6.77
669.166	7.77
669.198	8.77
669.229	2.77
669.261	12.77
669.292	5.77
669.324	10.77
669.355	-0.23
669.387	0.77
669.418	2.77
669.45	-5.23
669.481	-2.23
669.513	1.77
669.544	-7.23
669.576	-6.23
669.607	21.77
669.639	16.77
669.67	-10.23
669.701	-2.23
669.733	-11.23
669.764	6.77
669.796	3.77
669.827	-8.23
669.859	-14.23
669.89	7.77
669.922	-5.23
669.953	8.77
669.985	3.77
670.016	-1.23
670.047	-1.23
670.079	-8.23
670.11	-4.23
670.142	16.77
670.173	10.77
670.204	0.77
670.236	-4.23
670.267	-10.23
670.299	-5.23
670.33	-5.23
670.362	-9.23
670.393	-9.23
670.424	-1.23
670.456	-9.23
670.487	-14.23
670.518	2.77
670.55	1.77
670.581	-8.23
670.613	-2.23
670.644	6.77
670.675	-10.23
670.707	-14.23
670.738	-1.23
670.769	-4.23
670.801	-24.23
670.832	-1.23
670.864	-5.23
670.895	-6.23
670.926	-2.23
670.958	-11.23
670.989	-14.23
671.02	-8.23
671.052	-1.23
671.083	-9.23
671.114	0.77
671.146	8.77
671.177	0.77
671.208	-5.23
671.24	-14.23
671.271	-2.23
671.302	6.77
671.333	-20.23
671.365	-6.23
671.396	5.77
671.427	15.77
671.459	12.77
671.49	13.77
671.521	-0.23
671.553	-4.23
671.584	1.77
671.615	-9.23
671.646	0.77
671.678	-9.23
671.709	-12.23
671.74	-20.23
671.771	-1.23
671.803	-17.23
671.834	8.77
671.865	6.77
671.896	5.77
671.928	-5.23
671.959	3.77
671.99	7.77
672.021	-17.23
672.053	-10.23
672.084	6.77
672.115	-2.23
672.146	-9.23
672.178	-11.23
672.209	-13.23
672.24	-19.23
672.271	23.77
672.303	0.77
672.334	3.77
672.365	-5.23
672.396	2.77
672.427	9.77
672.459	3.77
672.49	4.77
672.521	4.77
672.552	8.77
672.583	5.77
672.615	-2.23
672.646	8.77
672.677	-0.23
672.708	-15.23
672.739	-11.23
672.77	6.77
672.802	-2.23
672.833	9.77
672.864	1.77
672.895	-8.23
672.926	-1.23
672.957	-10.23
672.989	-17.23
673.02	-4.23
673.051	-7.23
673.082	-6.23
673.113	10.77
673.144	16.77
673.175	-6.23
673.206	0.77
673.238	5.77
673.269	1.77
673.3	-3.23
673.331	12.77
673.362	8.77
673.393	4.77
673.424	13.77
673.455	26.77
673.487	-7.23
673.518	32.77
673.549	4.77
673.58	-4.23
673.611	6.77
673.642	-2.23
673.673	-3.23
673.704	18.77
673.735	-6.23
673.766	-3.23
673.797	-15.23
673.828	-0.23
673.86	-8.23
673.891	-14.23
673.922	-9.23
673.953	0.77
673.984	-5.23
674.015	-1.23
674.046	-6.23
674.077	-8.23
674.108	1.77
674.139	11.77
674.17	2.77
674.201	-9.23
674.232	2.77
674.263	-0.23
674.294	-13.23
674.325	-5.23
674.356	-1.23
674.387	3.77
674.418	3.77
674.449	-2.23
674.48	-8.23
674.511	7.77
674.542	3.77
674.573	-5.23
674.604	11.77
674.635	-12.23
674.666	3.77
674.697	-12.23
674.728	-11.23
674.759	-2.23
674.79	-11.23
674.821	-15.23
674.852	0.77
674.883	-9.23
674.914	-8.23
674.945	-7.23
674.976	7.77
675.007	-16.23
675.038	-5.23
675.069	-23.23
675.1	-7.23
675.131	-0.23
675.162	-6.23
675.193	-27.23
675.224	-5.23
675.254	5.77
675.285	-4.23
675.316	11.77
675.347	8.77
675.378	-8.23
675.409	-8.23
675.44	-0.23
675.471	20.77
675.502	-2.23
675.533	-5.23
675.564	-3.23
675.595	-9.23
675.625	-0.23
675.656	1.77
675.687	3.77
675.718	-4.23
675.749	6.77
675.78	-0.23
675.811	-20.23
675.842	-4.23
675.873	-9.23
675.903	6.77
675.934	9.77
675.965	-6.23
675.996	-14.23
676.027	5.77
676.058	2.77
676.089	-13.23
676.119	-0.23
676.15	6.77
676.181	-1.23
676.212	7.77
676.243	19.77
676.274	-13.23
676.304	12.77
676.335	-7.23
676.366	-1.23
676.397	-13.23
676.428	-1.23
676.459	1.77
676.489	2.77
676.52	11.77
676.551	14.77
676.582	-9.23
676.613	8.77
676.643	-19.23
676.674	7.77
676.705	-18.23
676.736	-0.23
676.767	16.77
676.797	12.77
676.828	9.77
676.859	1.77
676.89	-11.23
676.92	7.77
676.951	-9.23
676.982	8.77
677.013	5.77
677.044	27.77
677.074	22.77
677.105	-1.23
677.136	-4.23
677.167	2.77
677.197	12.77
677.228	-5.23
677.259	-6.23
677.289	-0.23
677.32	-8.23
677.351	-8.23
677.382	-3.23
677.412	-14.23
677.443	-4.23
677.474	10.77
677.505	-6.23
677.535	2.77
677.566	-0.23
677.597	-11.23
677.627	-6.23
677.658	-7.23
677.689	-4.23
677.72	4.77
677.75	1.77
677.781	-9.23
677.812	-1.23
677.842	4.77
677.873	8.77
677.904	-15.23
677.934	0.77
677.965	-11.23
677.996	1.77
678.026	10.77
678.057	9.77
678.088	-15.23
678.118	-8.23
678.149	-15.23
678.18	-8.23
678.21	0.77
678.241	-6.23
678.272	-24.23
678.302	4.77
678.333	3.77
678.363	3.77
678.394	6.77
678.425	1.77
678.455	7.77
678.486	-1.23
678.517	-9.23
678.547	-17.23
678.578	-12.23
678.608	-7.23
678.639	12.77
678.67	-5.23
678.7	-13.23
678.731	-6.23
678.761	-0.23
678.792	8.77
678.823	5.77
678.853	3.77
678.884	-17.23
678.914	3.77
678.945	7.77
678.975	-11.23
679.006	-7.23
679.037	-16.23
679.067	23.77
679.098	-0.23
679.128	-14.23
679.159	5.77
679.189	22.77
679.22	-2.23
679.25	11.77
679.281	3.77
679.312	-14.23
679.342	-1.23
679.373	15.77
679.403	5.77
679.434	25.77
679.464	-4.23
679.495	-6.23
679.525	-0.23
679.556	-6.23
679.586	6.77
679.617	14.77
679.647	10.77
679.678	5.77
679.708	0.77
679.739	3.77
679.769	-14.23
679.8	-1.23
679.83	-12.23
679.861	-6.23
679.891	-6.23
679.922	-9.23
679.952	-4.23
679.983	6.77
680.013	-2.23
680.044	-1.23
680.074	0.77
680.105	4.77
680.135	-2.23
680.165	0.77
680.196	-11.23
680.226	10.77
680.257	2.77
680.287	0.77
680.318	-8.23
680.348	-17.23
680.379	7.77
680.409	0.77
680.439	-9.23
680.47	-1.23
680.5	-0.23
680.531	-15.23
680.561	8.77
680.592	18.77
680.622	5.77
680.652	15.77
680.683	12.77
680.713	-0.23
680.744	-0.23
680.774	1.77
680.804	14.77
680.835	1.77
680.865	-2.23
680.896	4.77
680.926	10.77
680.956	-1.23
680.987	-6.23
681.017	-14.23
681.047	3.77
681.078	-8.23
681.108	-11.23
681.139	4.77
681.169	-3.23
681.199	-2.23
681.23	-13.23
681.26	-14.23
681.29	-11.23
681.321	-2.23
681.351	4.77
681.381	-6.23
681.412	-11.23
681.442	4.77
681.472	14.77
681.503	12.77
681.533	-11.23
681.563	6.77
681.594	3.77
681.624	17.77
681.654	4.77
681.685	-2.23
681.715	6.77
681.745	-11.23
681.775	0.77
681.806	5.77
681.836	7.77
681.866	6.77
681.897	4.77
681.927	-10.23
681.957	-26.23
681.987	-14.23
682.018	2.77
682.048	9.77
682.078	-15.23
682.109	1.77
682.139	9.77
682.169	2.77
682.199	-9.23
682.23	-3.23
682.26	9.77
682.29	-1.23
682.32	-2.23
682.351	1.77
682.381	2.77
