Data from HighRes_mercury_15_13_11_07_2024_HR4C61891__57__15-14-28-886.txt Node

Date: Thu Nov 07 15:14:28 EST 2024
User: crc00042
Spectrometer: HR4C6189
Trigger mode: 4
Integration Time (sec): 1.000000E-1
Scans to average: 1
Electric dark correction enabled: true
Nonlinearity correction enabled: false
Boxcar width: 0
XAxis mode: Wavelengths
Number of Pixels in Spectrum: 3648
>>>>>Begin Spectral Data<<<<<
639.567	-62.23
639.602	-62.23
639.636	-62.23
639.67	-50.23
639.704	-31.23
639.738	2.77
639.773	17.77
639.807	-10.23
639.841	-7.23
639.875	15.77
639.909	1.77
639.943	-23.23
639.978	-2.23
640.012	4.77
640.046	18.77
640.08	-5.23
640.114	3.77
640.148	-17.23
640.182	-10.23
640.217	-18.23
640.251	7.77
640.285	6.77
640.319	-0.23
640.353	-13.23
640.387	-6.23
640.421	-17.23
640.455	-16.23
640.49	-11.23
640.524	-31.23
640.558	18.77
640.592	-1.23
640.626	3.77
640.66	-0.23
640.694	-21.23
640.728	8.77
640.762	11.77
640.796	9.77
640.83	4.77
640.865	-6.23
640.899	3.77
640.933	0.77
640.967	-13.23
641.001	2.77
641.035	4.77
641.069	-6.23
641.103	-24.23
641.137	-27.23
641.171	-15.23
641.205	-7.23
641.239	-8.23
641.273	-6.23
641.307	-1.23
641.341	3.77
641.375	1.77
641.409	-9.23
641.443	-6.23
641.477	-1.23
641.511	-1.23
641.545	-5.23
641.579	0.77
641.614	0.77
641.648	-6.23
641.682	-14.23
641.716	-5.23
641.75	4.77
641.784	-13.23
641.818	-12.23
641.852	1.77
641.886	-4.23
641.919	-2.23
641.953	-14.23
641.987	-24.23
642.021	-6.23
642.055	-4.23
642.089	-0.23
642.123	-13.23
642.157	8.77
642.191	-10.23
642.225	-4.23
642.259	-15.23
642.293	17.77
642.327	-0.23
642.361	11.77
642.395	-16.23
642.429	7.77
642.463	5.77
642.497	13.77
642.531	-9.23
642.565	-12.23
642.599	1.77
642.633	-13.23
642.666	9.77
642.7	9.77
642.734	8.77
642.768	-5.23
642.802	-4.23
642.836	6.77
642.87	-4.23
642.904	-12.23
642.938	-0.23
642.972	-2.23
643.005	-5.23
643.039	-5.23
643.073	0.77
643.107	13.77
643.141	1.77
643.175	2.77
643.209	-8.23
643.243	-15.23
643.276	-10.23
643.31	-19.23
643.344	-20.23
643.378	-15.23
643.412	-2.23
643.446	-1.23
643.48	-3.23
643.513	-1.23
643.547	-9.23
643.581	-14.23
643.615	-6.23
643.649	13.77
643.683	-2.23
643.716	-3.23
643.75	-0.23
643.784	-13.23
643.818	2.77
643.852	-4.23
643.886	-9.23
643.919	-2.23
643.953	-22.23
643.987	-23.23
644.021	-10.23
644.055	-1.23
644.088	-3.23
644.122	-24.23
644.156	-10.23
644.19	-21.23
644.224	-5.23
644.257	-2.23
644.291	2.77
644.325	17.77
644.359	0.77
644.392	-8.23
644.426	16.77
644.46	11.77
644.494	-0.23
644.527	6.77
644.561	10.77
644.595	3.77
644.629	-19.23
644.662	-8.23
644.696	0.77
644.73	-2.23
644.764	-3.23
644.797	-15.23
644.831	-9.23
644.865	3.77
644.899	5.77
644.932	10.77
644.966	0.77
645	3.77
645.033	28.77
645.067	-8.23
645.101	-3.23
645.135	-0.23
645.168	-6.23
645.202	-8.23
645.236	-2.23
645.269	-8.23
645.303	-23.23
645.337	-23.23
645.37	-13.23
645.404	14.77
645.438	-3.23
645.471	-13.23
645.505	-5.23
645.539	-5.23
645.572	-12.23
645.606	-24.23
645.64	-0.23
645.673	0.77
645.707	-7.23
645.741	-7.23
645.774	-12.23
645.808	7.77
645.842	-13.23
645.875	-10.23
645.909	-8.23
645.943	-15.23
645.976	0.77
646.01	22.77
646.043	2.77
646.077	6.77
646.111	2.77
646.144	0.77
646.178	14.77
646.212	-17.23
646.245	-11.23
646.279	-6.23
646.312	-8.23
646.346	5.77
646.38	-9.23
646.413	-2.23
646.447	7.77
646.48	-9.23
646.514	11.77
646.547	-6.23
646.581	-14.23
646.615	-2.23
646.648	-23.23
646.682	-0.23
646.715	-5.23
646.749	14.77
646.782	-13.23
646.816	-20.23
646.85	-5.23
646.883	-20.23
646.917	3.77
646.95	-6.23
646.984	-23.23
647.017	-12.23
647.051	-15.23
647.084	-4.23
647.118	-11.23
647.151	-6.23
647.185	-11.23
647.218	-21.23
647.252	3.77
647.285	-16.23
647.319	-25.23
647.353	2.77
647.386	8.77
647.42	-2.23
647.453	-5.23
647.487	8.77
647.52	0.77
647.553	6.77
647.587	-6.23
647.62	-16.23
647.654	-10.23
647.687	-16.23
647.721	10.77
647.754	-2.23
647.788	-5.23
647.821	-12.23
647.855	6.77
647.888	5.77
647.922	-0.23
647.955	-8.23
647.989	-6.23
648.022	-9.23
648.055	-1.23
648.089	-3.23
648.122	11.77
648.156	-8.23
648.189	-6.23
648.223	1.77
648.256	19.77
648.29	3.77
648.323	-6.23
648.356	-2.23
648.39	-4.23
648.423	5.77
648.457	-6.23
648.49	0.77
648.523	5.77
648.557	-2.23
648.59	-18.23
648.624	-5.23
648.657	-9.23
648.69	13.77
648.724	-3.23
648.757	-9.23
648.791	-0.23
648.824	-18.23
648.857	0.77
648.891	-8.23
648.924	0.77
648.957	15.77
648.991	-22.23
649.024	-3.23
649.057	-19.23
649.091	-22.23
649.124	-4.23
649.158	-10.23
649.191	13.77
649.224	-15.23
649.258	-0.23
649.291	0.77
649.324	-3.23
649.358	-9.23
649.391	1.77
649.424	-7.23
649.458	1.77
649.491	-9.23
649.524	-6.23
649.557	-8.23
649.591	-18.23
649.624	4.77
649.657	-3.23
649.691	6.77
649.724	-3.23
649.757	-8.23
649.791	5.77
649.824	10.77
649.857	-6.23
649.89	-11.23
649.924	-26.23
649.957	-20.23
649.99	-20.23
650.023	-13.23
650.057	-10.23
650.09	-4.23
650.123	-5.23
650.157	8.77
650.19	23.77
650.223	-7.23
650.256	-16.23
650.29	3.77
650.323	-7.23
650.356	8.77
650.389	-9.23
650.423	-25.23
650.456	-18.23
650.489	-7.23
650.522	-2.23
650.555	-3.23
650.589	-5.23
650.622	4.77
650.655	-2.23
650.688	-9.23
650.721	-6.23
650.755	-15.23
650.788	-4.23
650.821	-10.23
650.854	0.77
650.887	8.77
650.921	-2.23
650.954	-14.23
650.987	-5.23
651.02	-21.23
651.053	-18.23
651.087	-6.23
651.12	6.77
651.153	-5.23
651.186	-3.23
651.219	-24.23
651.252	-2.23
651.286	-4.23
651.319	-6.23
651.352	-13.23
651.385	-9.23
651.418	-4.23
651.451	6.77
651.484	-4.23
651.518	-3.23
651.551	3.77
651.584	-10.23
651.617	12.77
651.65	2.77
651.683	0.77
651.716	-1.23
651.749	-16.23
651.783	-13.23
651.816	0.77
651.849	14.77
651.882	-2.23
651.915	-6.23
651.948	-8.23
651.981	-7.23
652.014	-11.23
652.047	-22.23
652.08	-14.23
652.114	-2.23
652.147	-10.23
652.18	-18.23
652.213	15.77
652.246	-14.23
652.279	-12.23
652.312	3.77
652.345	-22.23
652.378	-19.23
652.411	3.77
652.444	-7.23
652.477	-16.23
652.51	-11.23
652.543	-25.23
652.576	-9.23
652.609	-18.23
652.642	-7.23
652.675	4.77
652.709	-7.23
652.742	3.77
652.775	-1.23
652.808	2.77
652.841	0.77
652.874	-4.23
652.907	-7.23
652.94	-23.23
652.973	-14.23
653.006	-16.23
653.039	-20.23
653.072	0.77
653.105	-6.23
653.138	-16.23
653.171	-9.23
653.204	-16.23
653.237	-0.23
653.27	-20.23
653.303	0.77
653.336	1.77
653.368	-15.23
653.401	-15.23
653.434	-9.23
653.467	-9.23
653.5	-23.23
653.533	-19.23
653.566	-26.23
653.599	-7.23
653.632	3.77
653.665	2.77
653.698	-21.23
653.731	-27.23
653.764	-13.23
653.797	-16.23
653.83	7.77
653.863	-14.23
653.896	-1.23
653.929	1.77
653.961	-5.23
653.994	-3.23
654.027	-18.23
654.06	-12.23
654.093	-21.23
654.126	-5.23
654.159	-12.23
654.192	2.77
654.225	-4.23
654.258	-6.23
654.29	-8.23
654.323	-7.23
654.356	-4.23
654.389	-17.23
654.422	-4.23
654.455	-6.23
654.488	-3.23
654.521	-22.23
654.553	-10.23
654.586	2.77
654.619	-7.23
654.652	-23.23
654.685	-5.23
654.718	3.77
654.751	-2.23
654.783	-10.23
654.816	2.77
654.849	-8.23
654.882	-6.23
654.915	-15.23
654.948	-16.23
654.98	-4.23
655.013	-10.23
655.046	-24.23
655.079	-16.23
655.112	-6.23
655.144	-22.23
655.177	9.77
655.21	-11.23
655.243	1.77
655.276	-12.23
655.308	-11.23
655.341	-32.23
655.374	-4.23
655.407	-14.23
655.44	-12.23
655.472	-14.23
655.505	6.77
655.538	-1.23
655.571	-0.23
655.603	-10.23
655.636	-16.23
655.669	-13.23
655.702	-18.23
655.734	-11.23
655.767	-15.23
655.8	-7.23
655.833	-11.23
655.865	-1.23
655.898	-15.23
655.931	-8.23
655.964	-5.23
655.996	-15.23
656.029	2.77
656.062	-7.23
656.095	-15.23
656.127	-18.23
656.16	-13.23
656.193	-0.23
656.225	-8.23
656.258	-10.23
656.291	-0.23
656.324	0.77
656.356	7.77
656.389	-0.23
656.422	3.77
656.454	-17.23
656.487	3.77
656.52	3.77
656.552	-9.23
656.585	-2.23
656.618	7.77
656.65	0.77
656.683	-10.23
656.716	8.77
656.748	-0.23
656.781	1.77
656.814	-25.23
656.846	-10.23
656.879	-13.23
656.912	-21.23
656.944	-10.23
656.977	-29.23
657.01	10.77
657.042	6.77
657.075	-3.23
657.108	-10.23
657.14	12.77
657.173	10.77
657.205	4.77
657.238	5.77
657.271	-1.23
657.303	-8.23
657.336	17.77
657.369	-12.23
657.401	6.77
657.434	7.77
657.466	-0.23
657.499	-4.23
657.532	-22.23
657.564	4.77
657.597	-12.23
657.629	2.77
657.662	-2.23
657.694	-0.23
657.727	-34.23
657.76	7.77
657.792	-3.23
657.825	-12.23
657.857	-10.23
657.89	-3.23
657.922	1.77
657.955	-12.23
657.987	2.77
658.02	26.77
658.053	12.77
658.085	-1.23
658.118	-5.23
658.15	8.77
658.183	17.77
658.215	-11.23
658.248	-18.23
658.28	-6.23
658.313	7.77
658.345	9.77
658.378	-4.23
658.41	-11.23
658.443	-2.23
658.475	-17.23
658.508	-16.23
658.54	-9.23
658.573	-23.23
658.605	-18.23
658.638	-8.23
658.67	-9.23
658.703	-3.23
658.735	-9.23
658.768	-2.23
658.8	-18.23
658.833	7.77
658.865	0.77
658.898	-5.23
658.93	-15.23
658.963	-6.23
658.995	-13.23
659.028	-0.23
659.06	-2.23
659.092	-13.23
659.125	-5.23
659.157	-6.23
659.19	-10.23
659.222	5.77
659.255	-6.23
659.287	-3.23
659.32	-17.23
659.352	-10.23
659.384	1.77
659.417	4.77
659.449	12.77
659.482	11.77
659.514	-24.23
659.546	-15.23
659.579	-10.23
659.611	1.77
659.644	-5.23
659.676	-21.23
659.708	-15.23
659.741	-24.23
659.773	-4.23
659.806	-2.23
659.838	-9.23
659.87	-22.23
659.903	0.77
659.935	-6.23
659.967	9.77
660	1.77
660.032	-32.23
660.065	1.77
660.097	0.77
660.129	-18.23
660.162	-6.23
660.194	-2.23
660.226	2.77
660.259	5.77
660.291	-15.23
660.323	-14.23
660.356	4.77
660.388	-1.23
660.42	-3.23
660.453	6.77
660.485	3.77
660.517	7.77
660.55	3.77
660.582	-13.23
660.614	-8.23
660.647	-9.23
660.679	-13.23
660.711	-2.23
660.743	-13.23
660.776	-6.23
660.808	-15.23
660.84	-8.23
660.873	-16.23
660.905	-4.23
660.937	-12.23
660.969	4.77
661.002	9.77
661.034	14.77
661.066	-3.23
661.099	-6.23
661.131	3.77
661.163	-11.23
661.195	-2.23
661.228	10.77
661.26	-16.23
661.292	-6.23
661.324	-0.23
661.357	2.77
661.389	-2.23
661.421	8.77
661.453	0.77
661.485	-6.23
661.518	2.77
661.55	-19.23
661.582	-18.23
661.614	-14.23
661.647	-8.23
661.679	1.77
661.711	2.77
661.743	-5.23
661.775	-7.23
661.808	17.77
661.84	2.77
661.872	-9.23
661.904	-16.23
661.936	-5.23
661.969	-21.23
662.001	-15.23
662.033	-20.23
662.065	-9.23
662.097	-2.23
662.129	-2.23
662.162	-11.23
662.194	-0.23
662.226	-6.23
662.258	-1.23
662.29	-6.23
662.322	-23.23
662.355	-15.23
662.387	13.77
662.419	-6.23
662.451	0.77
662.483	8.77
662.515	-34.23
662.547	-6.23
662.58	-15.23
662.612	-18.23
662.644	-10.23
662.676	-8.23
662.708	22.77
662.74	-4.23
662.772	-0.23
662.804	7.77
662.836	4.77
662.869	-11.23
662.901	3.77
662.933	-15.23
662.965	0.77
662.997	2.77
663.029	-8.23
663.061	-12.23
663.093	-7.23
663.125	0.77
663.157	-6.23
663.189	0.77
663.221	-6.23
663.254	-5.23
663.286	-10.23
663.318	-21.23
663.35	-5.23
663.382	-27.23
663.414	-11.23
663.446	-13.23
663.478	-25.23
663.51	21.77
663.542	-21.23
663.574	-18.23
663.606	-16.23
663.638	-25.23
663.67	6.77
663.702	9.77
663.734	-2.23
663.766	7.77
663.798	-2.23
663.83	0.77
663.862	-2.23
663.894	-5.23
663.926	-13.23
663.958	-13.23
663.99	-1.23
664.022	-2.23
664.054	-1.23
664.086	-10.23
664.118	-12.23
664.15	-12.23
664.182	-3.23
664.214	-10.23
664.246	2.77
664.278	7.77
664.31	6.77
664.342	3.77
664.374	-16.23
664.406	-9.23
664.438	-10.23
664.47	20.77
664.502	-12.23
664.534	-10.23
664.566	-6.23
664.598	-9.23
664.63	-9.23
664.662	1.77
664.693	-3.23
664.725	-31.23
664.757	-17.23
664.789	-11.23
664.821	-5.23
664.853	-21.23
664.885	-5.23
664.917	-13.23
664.949	4.77
664.981	-5.23
665.013	-20.23
665.045	-14.23
665.076	-21.23
665.108	-15.23
665.14	1.77
665.172	5.77
665.204	-14.23
665.236	-18.23
665.268	6.77
665.3	-24.23
665.331	-11.23
665.363	-3.23
665.395	-18.23
665.427	-15.23
665.459	-5.23
665.491	-6.23
665.523	-10.23
665.555	-6.23
665.586	-5.23
665.618	-1.23
665.65	-22.23
665.682	-4.23
665.714	-1.23
665.746	-13.23
665.777	-3.23
665.809	-19.23
665.841	-8.23
665.873	-8.23
665.905	0.77
665.937	7.77
665.968	-4.23
666	-4.23
666.032	-6.23
666.064	-12.23
666.096	-8.23
666.127	-15.23
666.159	-5.23
666.191	3.77
666.223	-9.23
666.255	0.77
666.286	-6.23
666.318	-8.23
666.35	14.77
666.382	4.77
666.413	-19.23
666.445	-26.23
666.477	-21.23
666.509	-16.23
666.54	-6.23
666.572	-1.23
666.604	-16.23
666.636	-3.23
666.667	10.77
666.699	-9.23
666.731	-2.23
666.763	-8.23
666.794	-21.23
666.826	-3.23
666.858	-26.23
666.89	-1.23
666.921	3.77
666.953	3.77
666.985	11.77
667.017	4.77
667.048	-13.23
667.08	-20.23
667.112	-29.23
667.143	-16.23
667.175	-12.23
667.207	-7.23
667.238	-7.23
667.27	-6.23
667.302	-4.23
667.334	-4.23
667.365	11.77
667.397	3.77
667.429	-8.23
667.46	-1.23
667.492	6.77
667.524	-4.23
667.555	-8.23
667.587	-2.23
667.619	-9.23
667.65	-19.23
667.682	6.77
667.714	11.77
667.745	-8.23
667.777	-27.23
667.808	-0.23
667.84	-7.23
667.872	-3.23
667.903	-2.23
667.935	-14.23
667.967	-4.23
667.998	-7.23
668.03	-2.23
668.061	-4.23
668.093	-9.23
668.125	-2.23
668.156	11.77
668.188	9.77
668.22	-12.23
668.251	-1.23
668.283	-9.23
668.314	14.77
668.346	1.77
668.377	1.77
668.409	-1.23
668.441	10.77
668.472	-0.23
668.504	8.77
668.535	7.77
668.567	2.77
668.599	-21.23
668.63	-5.23
668.662	-23.23
668.693	6.77
668.725	-2.23
668.756	11.77
668.788	-7.23
668.819	-7.23
668.851	-11.23
668.882	-5.23
668.914	-7.23
668.946	2.77
668.977	-7.23
669.009	2.77
669.04	-36.23
669.072	-5.23
669.103	-4.23
669.135	-16.23
669.166	-13.23
669.198	-6.23
669.229	-12.23
669.261	-11.23
669.292	-6.23
669.324	-7.23
669.355	-1.23
669.387	-14.23
669.418	-4.23
669.45	-15.23
669.481	-5.23
669.513	-3.23
669.544	1.77
669.576	-5.23
669.607	0.77
669.639	11.77
669.67	-12.23
669.701	-3.23
669.733	-19.23
669.764	1.77
669.796	-8.23
669.827	-14.23
669.859	-3.23
669.89	19.77
669.922	3.77
669.953	-11.23
669.985	0.77
670.016	5.77
670.047	-0.23
670.079	-3.23
670.11	7.77
670.142	-10.23
670.173	1.77
670.204	-26.23
670.236	-4.23
670.267	-15.23
670.299	1.77
670.33	-1.23
670.362	-0.23
670.393	-22.23
670.424	6.77
670.456	-14.23
670.487	-8.23
670.518	-9.23
670.55	-14.23
670.581	-19.23
670.613	1.77
670.644	-22.23
670.675	-15.23
670.707	-17.23
670.738	-22.23
670.769	1.77
670.801	-15.23
670.832	-15.23
670.864	-17.23
670.895	-4.23
670.926	-8.23
670.958	-2.23
670.989	-3.23
671.02	-9.23
671.052	1.77
671.083	-10.23
671.114	-25.23
671.146	17.77
671.177	3.77
671.208	-14.23
671.24	-16.23
671.271	-5.23
671.302	-4.23
671.333	-21.23
671.365	-3.23
671.396	-13.23
671.427	1.77
671.459	2.77
671.49	6.77
671.521	-10.23
671.553	-9.23
671.584	8.77
671.615	-20.23
671.646	-7.23
671.678	-10.23
671.709	-9.23
671.74	-15.23
671.771	-22.23
671.803	-15.23
671.834	-11.23
671.865	-14.23
671.896	-3.23
671.928	-25.23
671.959	-7.23
671.99	-17.23
672.021	-17.23
672.053	-18.23
672.084	5.77
672.115	-10.23
672.146	-21.23
672.178	-20.23
672.209	-25.23
672.24	-6.23
672.271	8.77
672.303	-8.23
672.334	-7.23
672.365	-13.23
672.396	0.77
672.427	-9.23
672.459	-2.23
672.49	12.77
672.521	-7.23
672.552	-11.23
672.583	-8.23
672.615	-2.23
672.646	4.77
672.677	-27.23
672.708	-13.23
672.739	-3.23
672.77	5.77
672.802	-5.23
672.833	-8.23
672.864	-6.23
672.895	-16.23
672.926	-4.23
672.957	-15.23
672.989	2.77
673.02	9.77
673.051	-14.23
673.082	15.77
673.113	-5.23
673.144	-15.23
673.175	-10.23
673.206	-3.23
673.238	-8.23
673.269	-26.23
673.3	-18.23
673.331	-3.23
673.362	-7.23
673.393	3.77
673.424	-1.23
673.455	-2.23
673.487	-14.23
673.518	-1.23
673.549	-4.23
673.58	-8.23
673.611	-8.23
673.642	-7.23
673.673	-18.23
673.704	-7.23
673.735	-21.23
673.766	-20.23
673.797	-7.23
673.828	-13.23
673.86	-32.23
673.891	-12.23
673.922	-20.23
673.953	-11.23
673.984	3.77
674.015	7.77
674.046	-1.23
674.077	-9.23
674.108	-21.23
674.139	-15.23
674.17	-11.23
674.201	-12.23
674.232	-10.23
674.263	-16.23
674.294	-7.23
674.325	-4.23
674.356	-4.23
674.387	8.77
674.418	-8.23
674.449	-26.23
674.48	-15.23
674.511	-9.23
674.542	-5.23
674.573	-8.23
674.604	9.77
674.635	-6.23
674.666	1.77
674.697	-9.23
674.728	-2.23
674.759	-11.23
674.79	-9.23
674.821	-6.23
674.852	-5.23
674.883	-3.23
674.914	-0.23
674.945	-3.23
674.976	-7.23
675.007	-5.23
675.038	-25.23
675.069	-11.23
675.1	-12.23
675.131	-8.23
675.162	-6.23
675.193	-0.23
675.224	-15.23
675.254	6.77
675.285	-19.23
675.316	11.77
675.347	3.77
675.378	-15.23
675.409	-2.23
675.44	9.77
675.471	-0.23
675.502	-3.23
675.533	1.77
675.564	-6.23
675.595	1.77
675.625	10.77
675.656	-3.23
675.687	-7.23
675.718	-30.23
675.749	1.77
675.78	-13.23
675.811	-0.23
675.842	6.77
675.873	9.77
675.903	-20.23
675.934	-9.23
675.965	-15.23
675.996	-30.23
676.027	-2.23
676.058	14.77
676.089	-17.23
676.119	-4.23
676.15	-12.23
676.181	-8.23
676.212	-5.23
676.243	12.77
676.274	-5.23
676.304	1.77
676.335	-18.23
676.366	-6.23
676.397	-9.23
676.428	6.77
676.459	1.77
676.489	1.77
676.52	-2.23
676.551	-13.23
676.582	-17.23
676.613	-5.23
676.643	-17.23
676.674	8.77
676.705	-7.23
676.736	-7.23
676.767	8.77
676.797	-7.23
676.828	4.77
676.859	-23.23
676.89	-14.23
676.92	-4.23
676.951	-12.23
676.982	4.77
677.013	3.77
677.044	19.77
677.074	-0.23
677.105	-13.23
677.136	-2.23
677.167	-3.23
677.197	2.77
677.228	-11.23
677.259	2.77
677.289	-17.23
677.32	-24.23
677.351	-7.23
677.382	-7.23
677.412	-3.23
677.443	14.77
677.474	-4.23
677.505	-11.23
677.535	-12.23
677.566	-17.23
677.597	-22.23
677.627	-14.23
677.658	-16.23
677.689	-3.23
677.72	1.77
677.75	-8.23
677.781	-20.23
677.812	-16.23
677.842	-2.23
677.873	3.77
677.904	-8.23
677.934	-11.23
677.965	0.77
677.996	-29.23
678.026	-3.23
678.057	-9.23
678.088	-13.23
678.118	-10.23
678.149	-18.23
678.18	-17.23
678.21	-8.23
678.241	-5.23
678.272	-5.23
678.302	-11.23
678.333	-6.23
678.363	14.77
678.394	-22.23
678.425	-5.23
678.455	-4.23
678.486	8.77
678.517	-5.23
678.547	-9.23
678.578	-5.23
678.608	-15.23
678.639	-0.23
678.67	2.77
678.7	-5.23
678.731	-3.23
678.761	-6.23
678.792	0.77
678.823	-1.23
678.853	-5.23
678.884	-12.23
678.914	-9.23
678.945	5.77
678.975	5.77
679.006	10.77
679.037	-23.23
679.067	29.77
679.098	-10.23
679.128	-11.23
679.159	-14.23
679.189	-5.23
679.22	-18.23
679.25	-1.23
679.281	2.77
679.312	-6.23
679.342	-8.23
679.373	27.77
679.403	1.77
679.434	1.77
679.464	-6.23
679.495	-18.23
679.525	-7.23
679.556	-1.23
679.586	-6.23
679.617	1.77
679.647	3.77
679.678	6.77
679.708	-2.23
679.739	-13.23
679.769	-9.23
679.8	-6.23
679.83	-7.23
679.861	3.77
679.891	-8.23
679.922	-22.23
679.952	-7.23
679.983	-18.23
680.013	-7.23
680.044	-25.23
680.074	7.77
680.105	7.77
680.135	0.77
680.165	-3.23
680.196	-10.23
680.226	-12.23
680.257	10.77
680.287	4.77
680.318	-4.23
680.348	-21.23
680.379	-4.23
680.409	-10.23
680.439	-11.23
680.47	-9.23
680.5	-12.23
680.531	-7.23
680.561	5.77
680.592	-3.23
680.622	10.77
680.652	-16.23
680.683	-1.23
680.713	-6.23
680.744	-22.23
680.774	-9.23
680.804	0.77
680.835	-22.23
680.865	-17.23
680.896	7.77
680.926	-10.23
680.956	-3.23
680.987	-4.23
681.017	-8.23
681.047	4.77
681.078	-14.23
681.108	-13.23
681.139	-2.23
681.169	-6.23
681.199	-14.23
681.23	-19.23
681.26	-11.23
681.29	7.77
681.321	-5.23
681.351	-10.23
681.381	-15.23
681.412	0.77
681.442	-19.23
681.472	3.77
681.503	2.77
681.533	-7.23
681.563	-9.23
681.594	-0.23
681.624	2.77
