Data from HighRes_mercury_15_13_11_07_2024_HR4C61891__10__15-14-24-186.txt Node

Date: Thu Nov 07 15:14:24 EST 2024
User: crc00042
Spectrometer: HR4C6189
Trigger mode: 4
Integration Time (sec): 1.000000E-1
Scans to average: 1
Electric dark correction enabled: true
Nonlinearity correction enabled: false
Boxcar width: 0
XAxis mode: Wavelengths
Number of Pixels in Spectrum: 3648
>>>>>Begin Spectral Data<<<<<
639.567	-56.15
639.602	-56.15
639.636	-56.15
639.67	-39.15
639.704	-13.15
639.738	-0.15
639.773	20.85
639.807	-5.15
639.841	7.85
639.875	34.85
639.909	-11.15
639.943	-6.15
639.978	-10.15
640.012	-1.15
640.046	-8.15
640.08	-0.15
640.114	-9.15
640.148	-12.15
640.182	-19.15
640.217	3.85
640.251	16.85
640.285	1.85
640.319	1.85
640.353	7.85
640.387	1.85
640.421	-3.15
640.455	-5.15
640.49	1.85
640.524	-2.15
640.558	2.85
640.592	-12.15
640.626	4.85
640.66	-3.15
640.694	-4.15
640.728	0.85
640.762	10.85
640.796	27.85
640.83	11.85
640.865	-4.15
640.899	14.85
640.933	11.85
640.967	3.85
641.001	-0.15
641.035	4.85
641.069	11.85
641.103	-10.15
641.137	-11.15
641.171	-5.15
641.205	8.85
641.239	13.85
641.273	11.85
641.307	5.85
641.341	15.85
641.375	0.85
641.409	5.85
641.443	1.85
641.477	5.85
641.511	2.85
641.545	8.85
641.579	12.85
641.614	19.85
641.648	11.85
641.682	-8.15
641.716	13.85
641.75	27.85
641.784	20.85
641.818	-0.15
641.852	-8.15
641.886	-6.15
641.919	31.85
641.953	3.85
641.987	-7.15
642.021	0.85
642.055	10.85
642.089	12.85
642.123	-2.15
642.157	-5.15
642.191	-16.15
642.225	6.85
642.259	5.85
642.293	15.85
642.327	5.85
642.361	-0.15
642.395	17.85
642.429	16.85
642.463	3.85
642.497	8.85
642.531	5.85
642.565	-9.15
642.599	-2.15
642.633	-22.15
642.666	11.85
642.7	-10.15
642.734	17.85
642.768	-1.15
642.802	9.85
642.836	18.85
642.87	-2.15
642.904	11.85
642.938	1.85
642.972	-5.15
643.005	-2.15
643.039	10.85
643.073	18.85
643.107	6.85
643.141	9.85
643.175	-8.15
643.209	8.85
643.243	-0.15
643.276	-6.15
643.31	7.85
643.344	-1.15
643.378	-16.15
643.412	25.85
643.446	13.85
643.48	4.85
643.513	13.85
643.547	11.85
643.581	-0.15
643.615	23.85
643.649	1.85
643.683	-7.15
643.716	-12.15
643.75	5.85
643.784	-8.15
643.818	14.85
643.852	16.85
643.886	7.85
643.919	18.85
643.953	-2.15
643.987	-3.15
644.021	20.85
644.055	13.85
644.088	3.85
644.122	-3.15
644.156	0.85
644.19	4.85
644.224	5.85
644.257	19.85
644.291	26.85
644.325	10.85
644.359	7.85
644.392	20.85
644.426	17.85
644.46	9.85
644.494	2.85
644.527	7.85
644.561	18.85
644.595	4.85
644.629	6.85
644.662	-3.15
644.696	17.85
644.73	9.85
644.764	2.85
644.797	-2.15
644.831	13.85
644.865	12.85
644.899	0.85
644.932	22.85
644.966	2.85
645	0.85
645.033	21.85
645.067	5.85
645.101	-2.15
645.135	-23.15
645.168	1.85
645.202	9.85
645.236	1.85
645.269	20.85
645.303	2.85
645.337	-5.15
645.37	-4.15
645.404	-1.15
645.438	-10.15
645.471	1.85
645.505	8.85
645.539	3.85
645.572	-14.15
645.606	4.85
645.64	8.85
645.673	7.85
645.707	23.85
645.741	-0.15
645.774	-3.15
645.808	16.85
645.842	4.85
645.875	31.85
645.909	-2.15
645.943	-6.15
645.976	-6.15
646.01	9.85
646.043	7.85
646.077	12.85
646.111	-6.15
646.144	9.85
646.178	5.85
646.212	-8.15
646.245	-1.15
646.279	5.85
646.312	13.85
646.346	2.85
646.38	4.85
646.413	12.85
646.447	2.85
646.48	15.85
646.514	30.85
646.547	3.85
646.581	-1.15
646.615	-4.15
646.648	6.85
646.682	-0.15
646.715	5.85
646.749	11.85
646.782	-3.15
646.816	-12.15
646.85	5.85
646.883	-8.15
646.917	-4.15
646.95	1.85
646.984	15.85
647.017	7.85
647.051	4.85
647.084	7.85
647.118	-6.15
647.151	9.85
647.185	21.85
647.218	-8.15
647.252	11.85
647.285	-0.15
647.319	-10.15
647.353	9.85
647.386	29.85
647.42	-0.15
647.453	0.85
647.487	12.85
647.52	4.85
647.553	6.85
647.587	-7.15
647.62	-2.15
647.654	5.85
647.687	8.85
647.721	13.85
647.754	9.85
647.788	12.85
647.821	-3.15
647.855	18.85
647.888	3.85
647.922	10.85
647.955	-4.15
647.989	0.85
648.022	-0.15
648.055	19.85
648.089	15.85
648.122	22.85
648.156	-4.15
648.189	0.85
648.223	8.85
648.256	12.85
648.29	15.85
648.323	19.85
648.356	21.85
648.39	14.85
648.423	6.85
648.457	-0.15
648.49	20.85
648.523	6.85
648.557	4.85
648.59	15.85
648.624	-0.15
648.657	2.85
648.69	20.85
648.724	13.85
648.757	28.85
648.791	4.85
648.824	7.85
648.857	16.85
648.891	-2.15
648.924	10.85
648.957	25.85
648.991	-12.15
649.024	12.85
649.057	2.85
649.091	-3.15
649.124	18.85
649.158	4.85
649.191	25.85
649.224	13.85
649.258	3.85
649.291	11.85
649.324	6.85
649.358	5.85
649.391	8.85
649.424	-1.15
649.458	0.85
649.491	-5.15
649.524	0.85
649.557	-19.15
649.591	-14.15
649.624	17.85
649.657	6.85
649.691	15.85
649.724	4.85
649.757	7.85
649.791	-14.15
649.824	8.85
649.857	19.85
649.89	6.85
649.924	-24.15
649.957	-12.15
649.99	-14.15
650.023	-10.15
650.057	3.85
650.09	10.85
650.123	3.85
650.157	11.85
650.19	3.85
650.223	-2.15
650.256	0.85
650.29	-3.15
650.323	3.85
650.356	16.85
650.389	15.85
650.423	8.85
650.456	6.85
650.489	-2.15
650.522	4.85
650.555	26.85
650.589	5.85
650.622	13.85
650.655	37.85
650.688	0.85
650.721	-10.15
650.755	13.85
650.788	-1.15
650.821	1.85
650.854	6.85
650.887	13.85
650.921	7.85
650.954	-11.15
650.987	1.85
651.02	-4.15
651.053	-0.15
651.087	-4.15
651.12	20.85
651.153	0.85
651.186	0.85
651.219	-0.15
651.252	26.85
651.286	12.85
651.319	6.85
651.352	3.85
651.385	14.85
651.418	1.85
651.451	10.85
651.484	5.85
651.518	2.85
651.551	23.85
651.584	2.85
651.617	13.85
651.65	16.85
651.683	11.85
651.716	6.85
651.749	-20.15
651.783	-4.15
651.816	6.85
651.849	21.85
651.882	-2.15
651.915	-5.15
651.948	26.85
651.981	8.85
652.014	-13.15
652.047	-17.15
652.08	2.85
652.114	-5.15
652.147	9.85
652.18	2.85
652.213	29.85
652.246	-11.15
652.279	-5.15
652.312	5.85
652.345	9.85
652.378	6.85
652.411	15.85
652.444	14.85
652.477	16.85
652.51	3.85
652.543	-15.15
652.576	14.85
652.609	-0.15
652.642	6.85
652.675	20.85
652.709	6.85
652.742	4.85
652.775	-2.15
652.808	12.85
652.841	9.85
652.874	27.85
652.907	-6.15
652.94	-15.15
652.973	-16.15
653.006	-3.15
653.039	20.85
653.072	25.85
653.105	3.85
653.138	-9.15
653.171	-6.15
653.204	-3.15
653.237	-4.15
653.27	-9.15
653.303	7.85
653.336	16.85
653.368	-12.15
653.401	-1.15
653.434	0.85
653.467	12.85
653.5	-12.15
653.533	-8.15
653.566	-8.15
653.599	-7.15
653.632	13.85
653.665	17.85
653.698	-6.15
653.731	-13.15
653.764	18.85
653.797	6.85
653.83	-13.15
653.863	0.85
653.896	11.85
653.929	8.85
653.961	8.85
653.994	2.85
654.027	-6.15
654.06	-7.15
654.093	3.85
654.126	5.85
654.159	-16.15
654.192	-4.15
654.225	11.85
654.258	-26.15
654.29	-6.15
654.323	5.85
654.356	6.85
654.389	3.85
654.422	19.85
654.455	-0.15
654.488	6.85
654.521	-1.15
654.553	-12.15
654.586	17.85
654.619	1.85
654.652	-12.15
654.685	27.85
654.718	9.85
654.751	9.85
654.783	-13.15
654.816	21.85
654.849	3.85
654.882	-8.15
654.915	-3.15
654.948	9.85
654.98	0.85
655.013	7.85
655.046	-12.15
655.079	-4.15
655.112	2.85
655.144	6.85
655.177	4.85
655.21	2.85
655.243	9.85
655.276	11.85
655.308	-6.15
655.341	-3.15
655.374	-1.15
655.407	-17.15
655.44	-3.15
655.472	6.85
655.505	0.85
655.538	10.85
655.571	7.85
655.603	-9.15
655.636	11.85
655.669	3.85
655.702	5.85
655.734	-12.15
655.767	-12.15
655.8	-4.15
655.833	1.85
655.865	17.85
655.898	-14.15
655.931	5.85
655.964	5.85
655.996	-11.15
656.029	9.85
656.062	5.85
656.095	6.85
656.127	-10.15
656.16	-1.15
656.193	-0.15
656.225	2.85
656.258	11.85
656.291	10.85
656.324	4.85
656.356	9.85
656.389	-0.15
656.422	6.85
656.454	-10.15
656.487	1.85
656.52	3.85
656.552	6.85
656.585	8.85
656.618	8.85
656.65	11.85
656.683	13.85
656.716	16.85
656.748	0.85
656.781	7.85
656.814	-15.15
656.846	-4.15
656.879	-9.15
656.912	-0.15
656.944	-9.15
656.977	-22.15
657.01	-10.15
657.042	8.85
657.075	4.85
657.108	-14.15
657.14	-11.15
657.173	5.85
657.205	28.85
657.238	8.85
657.271	3.85
657.303	-3.15
657.336	6.85
657.369	9.85
657.401	10.85
657.434	8.85
657.466	12.85
657.499	-4.15
657.532	-10.15
657.564	6.85
657.597	-8.15
657.629	-4.15
657.662	7.85
657.694	-1.15
657.727	-10.15
657.76	-6.15
657.792	8.85
657.825	-1.15
657.857	12.85
657.89	14.85
657.922	25.85
657.955	-3.15
657.987	-4.15
658.02	-6.15
658.053	1.85
658.085	12.85
658.118	7.85
658.15	3.85
658.183	24.85
658.215	-5.15
658.248	7.85
658.28	-6.15
658.313	3.85
658.345	-5.15
658.378	-9.15
658.41	6.85
658.443	19.85
658.475	-2.15
658.508	-12.15
658.54	-3.15
658.573	-20.15
658.605	-14.15
658.638	-12.15
658.67	0.85
658.703	-5.15
658.735	-4.15
658.768	3.85
658.8	-17.15
658.833	0.85
658.865	-4.15
658.898	7.85
658.93	6.85
658.963	-2.15
658.995	-4.15
659.028	0.85
659.06	3.85
659.092	-4.15
659.125	-7.15
659.157	-2.15
659.19	-2.15
659.222	7.85
659.255	-2.15
659.287	2.85
659.32	0.85
659.352	10.85
659.384	22.85
659.417	-5.15
659.449	6.85
659.482	16.85
659.514	-1.15
659.546	4.85
659.579	-13.15
659.611	5.85
659.644	2.85
659.676	-9.15
659.708	-15.15
659.741	0.85
659.773	6.85
659.806	-10.15
659.838	13.85
659.87	-2.15
659.903	-13.15
659.935	15.85
659.967	1.85
660	12.85
660.032	-12.15
660.065	13.85
660.097	-0.15
660.129	18.85
660.162	-12.15
660.194	14.85
660.226	9.85
660.259	14.85
660.291	-3.15
660.323	-8.15
660.356	1.85
660.388	-5.15
660.42	4.85
660.453	14.85
660.485	4.85
660.517	21.85
660.55	16.85
660.582	-4.15
660.614	11.85
660.647	6.85
660.679	7.85
660.711	21.85
660.743	13.85
660.776	-3.15
660.808	3.85
660.84	-23.15
660.873	-6.15
660.905	0.85
660.937	6.85
660.969	-8.15
661.002	-4.15
661.034	7.85
661.066	0.85
661.099	12.85
661.131	23.85
661.163	5.85
661.195	2.85
661.228	13.85
661.26	10.85
661.292	0.85
661.324	14.85
661.357	3.85
661.389	27.85
661.421	12.85
661.453	1.85
661.485	-1.15
661.518	11.85
661.55	-22.15
661.582	-14.15
661.614	-5.15
661.647	-4.15
661.679	-4.15
661.711	4.85
661.743	-4.15
661.775	3.85
661.808	25.85
661.84	-23.15
661.872	10.85
661.904	5.85
661.936	2.85
661.969	-0.15
662.001	0.85
662.033	-0.15
662.065	-2.15
662.097	19.85
662.129	-10.15
662.162	-9.15
662.194	7.85
662.226	16.85
662.258	9.85
662.29	5.85
662.322	0.85
662.355	-9.15
662.387	8.85
662.419	4.85
662.451	11.85
662.483	2.85
662.515	1.85
662.547	-13.15
662.58	-7.15
662.612	3.85
662.644	-10.15
662.676	22.85
662.708	11.85
662.74	7.85
662.772	16.85
662.804	9.85
662.836	21.85
662.869	11.85
662.901	13.85
662.933	-14.15
662.965	8.85
662.997	10.85
663.029	-8.15
663.061	0.85
663.093	-0.15
663.125	5.85
663.157	6.85
663.189	0.85
663.221	8.85
663.254	10.85
663.286	24.85
663.318	-3.15
663.35	-13.15
663.382	1.85
663.414	24.85
663.446	3.85
663.478	7.85
663.51	25.85
663.542	-18.15
663.574	0.85
663.606	-5.15
663.638	-2.15
663.67	8.85
663.702	-7.15
663.734	-6.15
663.766	-1.15
663.798	-5.15
663.83	-5.15
663.862	13.85
663.894	5.85
663.926	1.85
663.958	-2.15
663.99	-0.15
664.022	-9.15
664.054	-9.15
664.086	-4.15
664.118	-16.15
664.15	-3.15
664.182	9.85
664.214	-3.15
664.246	21.85
664.278	0.85
664.31	9.85
664.342	0.85
664.374	7.85
664.406	-6.15
664.438	-7.15
664.47	5.85
664.502	-10.15
664.534	-2.15
664.566	6.85
664.598	16.85
664.63	5.85
664.662	10.85
664.693	26.85
664.725	1.85
664.757	2.85
664.789	-13.15
664.821	4.85
664.853	20.85
664.885	13.85
664.917	16.85
664.949	9.85
664.981	23.85
665.013	1.85
665.045	-10.15
665.076	8.85
665.108	2.85
665.14	-1.15
665.172	-6.15
665.204	-15.15
665.236	-7.15
665.268	13.85
665.3	0.85
665.331	-2.15
665.363	8.85
665.395	-10.15
665.427	11.85
665.459	11.85
665.491	-1.15
665.523	-0.15
665.555	6.85
665.586	-4.15
665.618	-14.15
665.65	-8.15
665.682	-8.15
665.714	7.85
665.746	-1.15
665.777	4.85
665.809	2.85
665.841	7.85
665.873	2.85
665.905	8.85
665.937	18.85
665.968	10.85
666	-13.15
666.032	-2.15
666.064	5.85
666.096	-8.15
666.127	27.85
666.159	10.85
666.191	2.85
666.223	-12.15
666.255	9.85
666.286	9.85
666.318	-11.15
666.35	9.85
666.382	13.85
666.413	-3.15
666.445	-4.15
666.477	-11.15
666.509	-3.15
666.54	4.85
666.572	-2.15
666.604	2.85
666.636	-2.15
666.667	10.85
666.699	19.85
666.731	3.85
666.763	-12.15
666.794	2.85
666.826	16.85
666.858	0.85
666.89	9.85
666.921	18.85
666.953	-0.15
666.985	11.85
667.017	30.85
667.048	6.85
667.08	5.85
667.112	-3.15
667.143	-13.15
667.175	7.85
667.207	11.85
667.238	3.85
667.27	6.85
667.302	-4.15
667.334	-5.15
667.365	8.85
667.397	-14.15
667.429	-3.15
667.46	15.85
667.492	3.85
667.524	11.85
667.555	-5.15
667.587	0.85
667.619	-0.15
667.65	-13.15
667.682	-1.15
667.714	14.85
667.745	-5.15
667.777	5.85
667.808	23.85
667.84	-4.15
667.872	7.85
667.903	11.85
667.935	8.85
667.967	-0.15
667.998	-6.15
668.03	2.85
668.061	7.85
668.093	3.85
668.125	6.85
668.156	5.85
668.188	14.85
668.22	-11.15
668.251	4.85
668.283	21.85
668.314	21.85
668.346	15.85
668.377	9.85
668.409	13.85
668.441	29.85
668.472	4.85
668.504	4.85
668.535	22.85
668.567	27.85
668.599	15.85
668.63	-11.15
668.662	7.85
668.693	22.85
668.725	17.85
668.756	22.85
668.788	-1.15
668.819	4.85
668.851	-9.15
668.882	-1.15
668.914	-5.15
668.946	-3.15
668.977	4.85
669.009	-3.15
669.04	5.85
669.072	4.85
669.103	-3.15
669.135	1.85
669.166	7.85
669.198	2.85
669.229	9.85
669.261	18.85
669.292	3.85
669.324	4.85
669.355	-3.15
669.387	-12.15
669.418	10.85
669.45	-7.15
669.481	-3.15
669.513	-1.15
669.544	5.85
669.576	2.85
669.607	25.85
669.639	7.85
669.67	-11.15
669.701	8.85
669.733	-15.15
669.764	4.85
669.796	-10.15
669.827	-21.15
669.859	-27.15
669.89	20.85
669.922	6.85
669.953	0.85
669.985	1.85
670.016	10.85
670.047	13.85
670.079	1.85
670.11	18.85
670.142	5.85
670.173	5.85
670.204	-7.15
670.236	2.85
670.267	-11.15
670.299	-9.15
670.33	18.85
670.362	25.85
670.393	1.85
670.424	16.85
670.456	1.85
670.487	-5.15
670.518	6.85
670.55	3.85
670.581	-13.15
670.613	3.85
670.644	3.85
670.675	7.85
670.707	5.85
670.738	0.85
670.769	11.85
670.801	0.85
670.832	8.85
670.864	-3.15
670.895	5.85
670.926	6.85
670.958	17.85
670.989	10.85
671.02	-9.15
671.052	3.85
671.083	2.85
671.114	13.85
671.146	5.85
671.177	3.85
671.208	-8.15
671.24	-19.15
671.271	-14.15
671.302	13.85
671.333	-9.15
671.365	-7.15
671.396	3.85
671.427	13.85
671.459	22.85
671.49	3.85
671.521	3.85
671.553	7.85
671.584	13.85
671.615	-16.15
671.646	4.85
671.678	-0.15
671.709	-15.15
671.74	-12.15
671.771	0.85
671.803	4.85
671.834	-0.15
671.865	3.85
671.896	-5.15
671.928	5.85
671.959	-0.15
671.99	-5.15
672.021	-3.15
672.053	-9.15
672.084	19.85
672.115	17.85
672.146	0.85
672.178	-11.15
672.209	-0.15
672.24	4.85
672.271	19.85
672.303	-4.15
672.334	1.85
672.365	5.85
672.396	-5.15
672.427	12.85
672.459	11.85
672.49	28.85
672.521	11.85
672.552	7.85
672.583	9.85
672.615	6.85
672.646	10.85
672.677	-4.15
672.708	4.85
672.739	-0.15
672.77	5.85
672.802	11.85
672.833	16.85
672.864	-2.15
672.895	1.85
672.926	-8.15
672.957	-10.15
672.989	-5.15
673.02	11.85
673.051	2.85
673.082	11.85
673.113	0.85
673.144	13.85
673.175	8.85
673.206	-3.15
673.238	-8.15
673.269	-6.15
673.3	8.85
673.331	4.85
673.362	15.85
673.393	0.85
673.424	18.85
673.455	17.85
673.487	16.85
673.518	16.85
673.549	12.85
673.58	5.85
673.611	-0.15
673.642	-2.15
673.673	-16.15
673.704	21.85
673.735	-3.15
673.766	-19.15
673.797	-9.15
673.828	7.85
673.86	-0.15
673.891	-6.15
673.922	-5.15
673.953	-5.15
673.984	9.85
674.015	0.85
674.046	-5.15
674.077	0.85
674.108	-22.15
674.139	0.85
674.17	-2.15
674.201	-16.15
674.232	4.85
674.263	-2.15
674.294	-12.15
674.325	2.85
674.356	25.85
674.387	15.85
674.418	-7.15
674.449	0.85
674.48	-9.15
674.511	-0.15
674.542	-4.15
674.573	4.85
674.604	10.85
674.635	-3.15
674.666	-1.15
674.697	-0.15
674.728	7.85
674.759	7.85
674.79	-0.15
674.821	-2.15
674.852	-0.15
674.883	-11.15
674.914	9.85
674.945	7.85
674.976	0.85
675.007	-5.15
675.038	6.85
675.069	-8.15
675.1	-0.15
675.131	12.85
675.162	-8.15
675.193	-2.15
675.224	6.85
675.254	9.85
675.285	-7.15
675.316	2.85
675.347	4.85
675.378	-5.15
675.409	-13.15
675.44	4.85
675.471	6.85
675.502	-0.15
675.533	-1.15
675.564	-9.15
675.595	1.85
675.625	19.85
675.656	18.85
675.687	-0.15
675.718	3.85
675.749	8.85
675.78	9.85
675.811	2.85
675.842	17.85
675.873	-11.15
675.903	-7.15
675.934	-0.15
675.965	2.85
675.996	-1.15
676.027	23.85
676.058	1.85
676.089	9.85
676.119	13.85
676.15	12.85
676.181	15.85
676.212	1.85
676.243	19.85
676.274	-3.15
676.304	10.85
676.335	-4.15
676.366	5.85
676.397	-2.15
676.428	-21.15
676.459	15.85
676.489	3.85
676.52	8.85
676.551	-4.15
676.582	9.85
676.613	5.85
676.643	-7.15
676.674	16.85
676.705	0.85
676.736	0.85
676.767	11.85
676.797	5.85
676.828	19.85
676.859	-10.15
676.89	0.85
676.92	2.85
676.951	10.85
676.982	-8.15
677.013	-8.15
677.044	18.85
677.074	15.85
677.105	-5.15
677.136	7.85
677.167	5.85
677.197	10.85
677.228	0.85
677.259	-4.15
677.289	-3.15
677.32	0.85
677.351	-1.15
677.382	7.85
677.412	-6.15
677.443	17.85
677.474	-5.15
677.505	-7.15
677.535	-0.15
677.566	-6.15
677.597	-14.15
677.627	-20.15
677.658	-3.15
677.689	-0.15
677.72	4.85
677.75	3.85
677.781	2.85
677.812	-7.15
677.842	4.85
677.873	-2.15
677.904	3.85
677.934	12.85
677.965	-6.15
677.996	-11.15
678.026	-3.15
678.057	-2.15
678.088	-17.15
678.118	0.85
678.149	-9.15
678.18	-2.15
678.21	11.85
678.241	1.85
678.272	10.85
678.302	10.85
678.333	13.85
678.363	9.85
678.394	11.85
678.425	-9.15
678.455	4.85
678.486	0.85
678.517	-0.15
678.547	2.85
678.578	-11.15
678.608	-4.15
678.639	15.85
678.67	-0.15
678.7	-12.15
678.731	-11.15
678.761	2.85
678.792	4.85
678.823	6.85
678.853	0.85
678.884	-10.15
678.914	12.85
678.945	7.85
678.975	-7.15
679.006	12.85
679.037	5.85
679.067	33.85
679.098	-1.15
679.128	11.85
679.159	9.85
679.189	15.85
679.22	-11.15
679.25	21.85
679.281	11.85
679.312	-5.15
679.342	10.85
679.373	36.85
679.403	9.85
679.434	13.85
679.464	2.85
679.495	4.85
679.525	14.85
679.556	2.85
679.586	12.85
679.617	3.85
679.647	-5.15
679.678	-12.15
679.708	-4.15
679.739	6.85
679.769	-16.15
679.8	-3.15
679.83	1.85
679.861	12.85
679.891	2.85
679.922	-3.15
679.952	17.85
679.983	12.85
680.013	13.85
680.044	8.85
680.074	15.85
680.105	23.85
680.135	6.85
680.165	15.85
680.196	16.85
680.226	22.85
680.257	12.85
680.287	3.85
680.318	-0.15
680.348	1.85
680.379	10.85
680.409	4.85
680.439	-7.15
680.47	-3.15
680.5	6.85
680.531	12.85
680.561	0.85
680.592	12.85
680.622	13.85
680.652	-3.15
680.683	2.85
680.713	2.85
680.744	-14.15
680.774	-0.15
680.804	22.85
680.835	7.85
680.865	-23.15
680.896	14.85
680.926	13.85
680.956	15.85
680.987	11.85
681.017	-2.15
681.047	5.85
681.078	0.85
681.108	-9.15
681.139	3.85
681.169	-2.15
681.199	-8.15
681.23	2.85
681.26	-2.15
681.29	7.85
681.321	-2.15
681.351	-0.15
681.381	-2.15
681.412	-9.15
681.442	-5.15
681.472	18.85
681.503	19.85
681.533	10.85
681.563	9.85
681.594	2.85
681.624	6.85
681.654	3.85
681.685	5.85
681.715	1.85
681.745	-1.15
681.775	-2.15
681.806	-1.15
681.836	-1.15
681.866	18.85
681.897	12.85
681.927	-1.15
681.957	-6.15
681.987	7.85
682.018	2.85
682.048	3.85
682.078	17.85
682.109	35.85
682.139	5.85
682.169	-17.15
682.199	2.85
682.23	-8.15
682.26	3.85
682.29	10.85
682.32	-4.15
682.351	-9.15
682.381	4.85
682.411	-7.15
682.441	0.85
682.472	2.85
682.502	-0.15
682.532	-0.15
682.562	10.85
682.592	8.85
682.623	6.85
682.653	-1.15
682.683	-12.15
