Data from HighRes_mercury_15_13_11_07_2024_HR4C61891__45__15-14-27-686.txt Node

Date: Thu Nov 07 15:14:27 EST 2024
User: crc00042
Spectrometer: HR4C6189
Trigger mode: 4
Integration Time (sec): 1.000000E-1
Scans to average: 1
Electric dark correction enabled: true
Nonlinearity correction enabled: false
Boxcar width: 0
XAxis mode: Wavelengths
Number of Pixels in Spectrum: 3648
>>>>>Begin Spectral Data<<<<<
639.567	-72.77
639.602	-72.77
639.636	-72.77
639.67	-54.77
639.704	2.23
639.738	-2.77
639.773	5.23
639.807	-5.77
639.841	-3.77
639.875	17.23
639.909	1.23
639.943	-8.77
639.978	-3.77
640.012	11.23
640.046	-11.77
640.08	7.23
640.114	10.23
640.148	-15.77
640.182	-12.77
640.217	1.23
640.251	13.23
640.285	8.23
640.319	-19.77
640.353	-3.77
640.387	-9.77
640.421	-0.77
640.455	10.23
640.49	-7.77
640.524	-3.77
640.558	1.23
640.592	11.23
640.626	-5.77
640.66	15.23
640.694	-0.77
640.728	5.23
640.762	15.23
640.796	0.23
640.83	24.23
640.865	-11.77
640.899	6.23
640.933	-7.77
640.967	4.23
641.001	-0.77
641.035	-3.77
641.069	3.23
641.103	2.23
641.137	-1.77
641.171	-6.77
641.205	10.23
641.239	14.23
641.273	0.23
641.307	4.23
641.341	5.23
641.375	7.23
641.409	-4.77
641.443	-6.77
641.477	6.23
641.511	6.23
641.545	6.23
641.579	8.23
641.614	10.23
641.648	13.23
641.682	1.23
641.716	-0.77
641.75	22.23
641.784	-6.77
641.818	-4.77
641.852	14.23
641.886	-4.77
641.919	26.23
641.953	-0.77
641.987	-22.77
642.021	-2.77
642.055	-2.77
642.089	3.23
642.123	-13.77
642.157	1.23
642.191	-0.77
642.225	-4.77
642.259	-17.77
642.293	-0.77
642.327	0.23
642.361	-8.77
642.395	2.23
642.429	11.23
642.463	10.23
642.497	16.23
642.531	2.23
642.565	-6.77
642.599	2.23
642.633	-2.77
642.666	4.23
642.7	10.23
642.734	10.23
642.768	-6.77
642.802	2.23
642.836	9.23
642.87	0.23
642.904	9.23
642.938	32.23
642.972	1.23
643.005	9.23
643.039	7.23
643.073	-0.77
643.107	8.23
643.141	11.23
643.175	-10.77
643.209	0.23
643.243	-4.77
643.276	13.23
643.31	-0.77
643.344	-9.77
643.378	3.23
643.412	17.23
643.446	9.23
643.48	-14.77
643.513	-2.77
643.547	1.23
643.581	-3.77
643.615	1.23
643.649	1.23
643.683	10.23
643.716	0.23
643.75	11.23
643.784	2.23
643.818	9.23
643.852	-4.77
643.886	-7.77
643.919	14.23
643.953	7.23
643.987	-7.77
644.021	18.23
644.055	11.23
644.088	-5.77
644.122	-0.77
644.156	-10.77
644.19	10.23
644.224	-3.77
644.257	-9.77
644.291	7.23
644.325	-0.77
644.359	-4.77
644.392	28.23
644.426	11.23
644.46	-1.77
644.494	11.23
644.527	0.23
644.561	-0.77
644.595	-0.77
644.629	-3.77
644.662	-24.77
644.696	8.23
644.73	29.23
644.764	3.23
644.797	-4.77
644.831	-0.77
644.865	8.23
644.899	12.23
644.932	21.23
644.966	12.23
645	-1.77
645.033	6.23
645.067	12.23
645.101	16.23
645.135	-11.77
645.168	0.23
645.202	-9.77
645.236	1.23
645.269	7.23
645.303	-10.77
645.337	-2.77
645.37	-14.77
645.404	5.23
645.438	5.23
645.471	-9.77
645.505	5.23
645.539	0.23
645.572	-0.77
645.606	-8.77
645.64	10.23
645.673	25.23
645.707	18.23
645.741	-8.77
645.774	-12.77
645.808	-8.77
645.842	-11.77
645.875	7.23
645.909	-2.77
645.943	0.23
645.976	16.23
646.01	7.23
646.043	-1.77
646.077	3.23
646.111	-3.77
646.144	21.23
646.178	3.23
646.212	-17.77
646.245	-5.77
646.279	8.23
646.312	-10.77
646.346	19.23
646.38	0.23
646.413	4.23
646.447	-11.77
646.48	-4.77
646.514	11.23
646.547	-1.77
646.581	-2.77
646.615	4.23
646.648	-4.77
646.682	-11.77
646.715	1.23
646.749	-7.77
646.782	-11.77
646.816	-3.77
646.85	10.23
646.883	-6.77
646.917	-4.77
646.95	-1.77
646.984	-1.77
647.017	-1.77
647.051	9.23
647.084	1.23
647.118	-0.77
647.151	2.23
647.185	12.23
647.218	4.23
647.252	3.23
647.285	-9.77
647.319	-14.77
647.353	-13.77
647.386	17.23
647.42	-1.77
647.453	5.23
647.487	-18.77
647.52	-0.77
647.553	5.23
647.587	-2.77
647.62	-4.77
647.654	2.23
647.687	2.23
647.721	17.23
647.754	9.23
647.788	13.23
647.821	-2.77
647.855	10.23
647.888	5.23
647.922	-2.77
647.955	-2.77
647.989	5.23
648.022	-0.77
648.055	16.23
648.089	-18.77
648.122	20.23
648.156	-2.77
648.189	1.23
648.223	5.23
648.256	16.23
648.29	8.23
648.323	-0.77
648.356	13.23
648.39	-0.77
648.423	-5.77
648.457	-5.77
648.49	16.23
648.523	2.23
648.557	-8.77
648.59	-13.77
648.624	-7.77
648.657	6.23
648.69	12.23
648.724	16.23
648.757	16.23
648.791	3.23
648.824	-10.77
648.857	16.23
648.891	5.23
648.924	6.23
648.957	29.23
648.991	13.23
649.024	7.23
649.057	-14.77
649.091	0.23
649.124	-11.77
649.158	-4.77
649.191	27.23
649.224	3.23
649.258	9.23
649.291	15.23
649.324	3.23
649.358	9.23
649.391	-16.77
649.424	1.23
649.458	4.23
649.491	-7.77
649.524	1.23
649.557	-15.77
649.591	-23.77
649.624	20.23
649.657	-7.77
649.691	-3.77
649.724	-1.77
649.757	4.23
649.791	-16.77
649.824	12.23
649.857	6.23
649.89	14.23
649.924	-0.77
649.957	-0.77
649.99	-2.77
650.023	9.23
650.057	5.23
650.09	21.23
650.123	6.23
650.157	6.23
650.19	12.23
650.223	-1.77
650.256	-10.77
650.29	2.23
650.323	9.23
650.356	11.23
650.389	-7.77
650.423	-24.77
650.456	-0.77
650.489	4.23
650.522	7.23
650.555	6.23
650.589	0.23
650.622	13.23
650.655	-13.77
650.688	-4.77
650.721	-14.77
650.755	-9.77
650.788	1.23
650.821	1.23
650.854	-9.77
650.887	7.23
650.921	-1.77
650.954	4.23
650.987	-13.77
651.02	-13.77
651.053	-16.77
651.087	3.23
651.12	9.23
651.153	6.23
651.186	9.23
651.219	-12.77
651.252	4.23
651.286	-7.77
651.319	-17.77
651.352	-10.77
651.385	-10.77
651.418	7.23
651.451	17.23
651.484	11.23
651.518	-11.77
651.551	8.23
651.584	-14.77
651.617	13.23
651.65	-2.77
651.683	18.23
651.716	7.23
651.749	-2.77
651.783	-8.77
651.816	-9.77
651.849	7.23
651.882	3.23
651.915	5.23
651.948	4.23
651.981	0.23
652.014	-14.77
652.047	-11.77
652.08	-12.77
652.114	8.23
652.147	0.23
652.18	8.23
652.213	30.23
652.246	-0.77
652.279	-16.77
652.312	18.23
652.345	4.23
652.378	1.23
652.411	-1.77
652.444	-6.77
652.477	4.23
652.51	6.23
652.543	-22.77
652.576	-17.77
652.609	-23.77
652.642	-1.77
652.675	22.23
652.709	2.23
652.742	-0.77
652.775	-0.77
652.808	-3.77
652.841	4.23
652.874	-9.77
652.907	15.23
652.94	8.23
652.973	-7.77
653.006	8.23
653.039	4.23
653.072	16.23
653.105	21.23
653.138	-15.77
653.171	-14.77
653.204	-11.77
653.237	3.23
653.27	-5.77
653.303	-1.77
653.336	9.23
653.368	6.23
653.401	-2.77
653.434	-7.77
653.467	-11.77
653.5	-21.77
653.533	-16.77
653.566	20.23
653.599	17.23
653.632	-4.77
653.665	-1.77
653.698	-17.77
653.731	-15.77
653.764	19.23
653.797	-0.77
653.83	-11.77
653.863	3.23
653.896	12.23
653.929	-9.77
653.961	-1.77
653.994	-10.77
654.027	-10.77
654.06	-10.77
654.093	1.23
654.126	5.23
654.159	-6.77
654.192	18.23
654.225	-7.77
654.258	-5.77
654.29	7.23
654.323	8.23
654.356	-1.77
654.389	1.23
654.422	-5.77
654.455	0.23
654.488	-7.77
654.521	-13.77
654.553	-3.77
654.586	6.23
654.619	-10.77
654.652	10.23
654.685	15.23
654.718	8.23
654.751	13.23
654.783	5.23
654.816	16.23
654.849	6.23
654.882	-0.77
654.915	-19.77
654.948	-8.77
654.98	7.23
655.013	-9.77
655.046	-4.77
655.079	-17.77
655.112	-4.77
655.144	0.23
655.177	8.23
655.21	4.23
655.243	0.23
655.276	-10.77
655.308	-17.77
655.341	-10.77
655.374	9.23
655.407	2.23
655.44	-8.77
655.472	0.23
655.505	1.23
655.538	-10.77
655.571	0.23
655.603	-8.77
655.636	2.23
655.669	6.23
655.702	-2.77
655.734	-8.77
655.767	-9.77
655.8	-3.77
655.833	-18.77
655.865	7.23
655.898	-3.77
655.931	-15.77
655.964	8.23
655.996	-1.77
656.029	0.23
656.062	12.23
656.095	4.23
656.127	-20.77
656.16	-10.77
656.193	10.23
656.225	4.23
656.258	23.23
656.291	7.23
656.324	-0.77
656.356	-9.77
656.389	-6.77
656.422	18.23
656.454	-14.77
656.487	0.23
656.52	13.23
656.552	-6.77
656.585	0.23
656.618	18.23
656.65	3.23
656.683	-7.77
656.716	0.23
656.748	7.23
656.781	0.23
656.814	-9.77
656.846	9.23
656.879	10.23
656.912	-12.77
656.944	-32.77
656.977	-8.77
657.01	-6.77
657.042	10.23
657.075	-0.77
657.108	-11.77
657.14	10.23
657.173	14.23
657.205	22.23
657.238	4.23
657.271	-10.77
657.303	-9.77
657.336	17.23
657.369	-3.77
657.401	4.23
657.434	10.23
657.466	14.23
657.499	-10.77
657.532	-2.77
657.564	24.23
657.597	-10.77
657.629	-3.77
657.662	14.23
657.694	5.23
657.727	-5.77
657.76	4.23
657.792	5.23
657.825	-2.77
657.857	-2.77
657.89	-8.77
657.922	9.23
657.955	-18.77
657.987	-15.77
658.02	-0.77
658.053	-6.77
658.085	5.23
658.118	1.23
658.15	17.23
658.183	9.23
658.215	0.23
658.248	3.23
658.28	-9.77
658.313	9.23
658.345	8.23
658.378	1.23
658.41	-7.77
658.443	10.23
658.475	-4.77
658.508	-15.77
658.54	5.23
658.573	-6.77
658.605	-0.77
658.638	2.23
658.67	7.23
658.703	-1.77
658.735	-16.77
658.768	12.23
658.8	-0.77
658.833	1.23
658.865	-12.77
658.898	-7.77
658.93	-6.77
658.963	-6.77
658.995	-21.77
659.028	-8.77
659.06	-5.77
659.092	-7.77
659.125	-1.77
659.157	5.23
659.19	4.23
659.222	3.23
659.255	-0.77
659.287	-6.77
659.32	4.23
659.352	-7.77
659.384	2.23
659.417	1.23
659.449	14.23
659.482	2.23
659.514	-6.77
659.546	-3.77
659.579	-9.77
659.611	-10.77
659.644	-16.77
659.676	-13.77
659.708	-22.77
659.741	-6.77
659.773	0.23
659.806	-3.77
659.838	4.23
659.87	-1.77
659.903	-17.77
659.935	11.23
659.967	18.23
660	13.23
660.032	3.23
660.065	18.23
660.097	0.23
660.129	-17.77
660.162	-14.77
660.194	4.23
660.226	9.23
660.259	6.23
660.291	-7.77
660.323	-6.77
660.356	8.23
660.388	-11.77
660.42	0.23
660.453	9.23
660.485	0.23
660.517	6.23
660.55	27.23
660.582	7.23
660.614	9.23
660.647	6.23
660.679	-18.77
660.711	13.23
660.743	-5.77
660.776	-5.77
660.808	1.23
660.84	-15.77
660.873	3.23
660.905	-4.77
660.937	-10.77
660.969	-3.77
661.002	2.23
661.034	7.23
661.066	-3.77
661.099	-0.77
661.131	10.23
661.163	5.23
661.195	-4.77
661.228	4.23
661.26	-10.77
661.292	-4.77
661.324	1.23
661.357	-4.77
661.389	-2.77
661.421	-4.77
661.453	-10.77
661.485	7.23
661.518	5.23
661.55	-13.77
661.582	-19.77
661.614	7.23
661.647	6.23
661.679	-4.77
661.711	-6.77
661.743	-9.77
661.775	-0.77
661.808	8.23
661.84	-20.77
661.872	2.23
661.904	-7.77
661.936	-19.77
661.969	-2.77
662.001	1.23
662.033	1.23
662.065	4.23
662.097	14.23
662.129	10.23
662.162	-11.77
662.194	-4.77
662.226	6.23
662.258	4.23
662.29	0.23
662.322	-1.77
662.355	-8.77
662.387	16.23
662.419	3.23
662.451	19.23
662.483	15.23
662.515	-12.77
662.547	-2.77
662.58	-10.77
662.612	-7.77
662.644	-19.77
662.676	-18.77
662.708	21.23
662.74	-2.77
662.772	-4.77
662.804	-0.77
662.836	15.23
662.869	-9.77
662.901	2.23
662.933	-1.77
662.965	7.23
662.997	13.23
663.029	-7.77
663.061	-9.77
663.093	-6.77
663.125	7.23
663.157	17.23
663.189	-3.77
663.221	16.23
663.254	0.23
663.286	2.23
663.318	9.23
663.35	5.23
663.382	8.23
663.414	22.23
663.446	1.23
663.478	-10.77
663.51	20.23
663.542	1.23
663.574	-0.77
663.606	-0.77
663.638	-10.77
663.67	-5.77
663.702	9.23
663.734	15.23
663.766	-2.77
663.798	-9.77
663.83	-11.77
663.862	-4.77
663.894	9.23
663.926	-0.77
663.958	11.23
663.99	4.23
664.022	-10.77
664.054	-10.77
664.086	-12.77
664.118	-11.77
664.15	-3.77
664.182	3.23
664.214	-10.77
664.246	9.23
664.278	17.23
664.31	26.23
664.342	12.23
664.374	-3.77
664.406	-12.77
664.438	-2.77
664.47	7.23
664.502	-10.77
664.534	-12.77
664.566	-2.77
664.598	-5.77
664.63	-10.77
664.662	7.23
664.693	3.23
664.725	2.23
664.757	-3.77
664.789	-2.77
664.821	-8.77
664.853	7.23
664.885	4.23
664.917	-2.77
664.949	-7.77
664.981	15.23
665.013	10.23
665.045	-2.77
665.076	-2.77
665.108	-0.77
665.14	-10.77
665.172	-3.77
665.204	-1.77
665.236	-5.77
665.268	9.23
665.3	-6.77
665.331	-8.77
665.363	-3.77
665.395	6.23
665.427	3.23
665.459	5.23
665.491	-2.77
665.523	1.23
665.555	-8.77
665.586	1.23
665.618	2.23
665.65	-8.77
665.682	8.23
665.714	6.23
665.746	-7.77
665.777	-14.77
665.809	-14.77
665.841	-4.77
665.873	2.23
665.905	9.23
665.937	26.23
665.968	-1.77
666	-11.77
666.032	-1.77
666.064	6.23
666.096	-0.77
666.127	5.23
666.159	1.23
666.191	9.23
666.223	1.23
666.255	-4.77
666.286	0.23
666.318	1.23
666.35	9.23
666.382	6.23
666.413	-14.77
666.445	-6.77
666.477	-13.77
666.509	12.23
666.54	-4.77
666.572	-3.77
666.604	2.23
666.636	2.23
666.667	14.23
666.699	10.23
666.731	-7.77
666.763	-27.77
666.794	-8.77
666.826	-1.77
666.858	-16.77
666.89	6.23
666.921	-1.77
666.953	1.23
666.985	15.23
667.017	16.23
667.048	-4.77
667.08	-0.77
667.112	-23.77
667.143	-3.77
667.175	-3.77
667.207	-2.77
667.238	-3.77
667.27	4.23
667.302	5.23
667.334	4.23
667.365	14.23
667.397	15.23
667.429	-8.77
667.46	7.23
667.492	3.23
667.524	-1.77
667.555	-7.77
667.587	14.23
667.619	8.23
667.65	-1.77
667.682	27.23
667.714	8.23
667.745	1.23
667.777	12.23
667.808	18.23
667.84	8.23
667.872	-0.77
667.903	-1.77
667.935	5.23
667.967	-0.77
667.998	0.23
668.03	9.23
668.061	2.23
668.093	0.23
668.125	4.23
668.156	5.23
668.188	-4.77
668.22	4.23
668.251	-7.77
668.283	-2.77
668.314	21.23
668.346	5.23
668.377	23.23
668.409	-13.77
668.441	9.23
668.472	3.23
668.504	20.23
668.535	-2.77
668.567	1.23
668.599	2.23
668.63	-0.77
668.662	5.23
668.693	11.23
668.725	6.23
668.756	1.23
668.788	-10.77
668.819	13.23
668.851	-9.77
668.882	4.23
668.914	-8.77
668.946	-25.77
668.977	-15.77
669.009	5.23
669.04	-6.77
669.072	8.23
669.103	-15.77
669.135	-7.77
669.166	-4.77
669.198	2.23
669.229	2.23
669.261	7.23
669.292	4.23
669.324	-5.77
669.355	10.23
669.387	-17.77
669.418	-6.77
669.45	-9.77
669.481	-0.77
669.513	2.23
669.544	-5.77
669.576	-7.77
669.607	16.23
669.639	11.23
669.67	-8.77
669.701	12.23
669.733	-11.77
669.764	-23.77
669.796	-15.77
669.827	-0.77
669.859	-11.77
669.89	7.23
669.922	5.23
669.953	-7.77
669.985	6.23
670.016	-1.77
670.047	6.23
670.079	3.23
670.11	-3.77
670.142	9.23
670.173	0.23
670.204	-12.77
670.236	4.23
670.267	-13.77
670.299	-5.77
670.33	3.23
670.362	3.23
670.393	-13.77
670.424	4.23
670.456	-6.77
670.487	-13.77
670.518	4.23
670.55	-12.77
670.581	-15.77
670.613	-0.77
670.644	-7.77
670.675	-10.77
670.707	-6.77
670.738	9.23
670.769	-7.77
670.801	0.23
670.832	4.23
670.864	-13.77
670.895	1.23
670.926	-1.77
670.958	-9.77
670.989	4.23
671.02	-12.77
671.052	-8.77
671.083	-2.77
671.114	3.23
671.146	8.23
671.177	16.23
671.208	-15.77
671.24	-17.77
671.271	-1.77
671.302	9.23
671.333	-3.77
671.365	0.23
671.396	-11.77
671.427	-1.77
671.459	1.23
671.49	-5.77
671.521	14.23
671.553	-4.77
671.584	7.23
671.615	-9.77
671.646	1.23
671.678	4.23
671.709	-15.77
671.74	-21.77
671.771	-0.77
671.803	-9.77
671.834	-0.77
671.865	-6.77
671.896	9.23
671.928	3.23
671.959	0.23
671.99	-11.77
672.021	-2.77
672.053	-3.77
672.084	-3.77
672.115	-2.77
672.146	-8.77
672.178	-10.77
672.209	-18.77
672.24	-8.77
672.271	6.23
672.303	-12.77
672.334	-7.77
672.365	-15.77
672.396	-3.77
672.427	6.23
672.459	10.23
672.49	14.23
672.521	1.23
672.552	28.23
672.583	1.23
672.615	-3.77
672.646	14.23
672.677	-6.77
672.708	-19.77
672.739	-3.77
672.77	5.23
672.802	1.23
672.833	7.23
672.864	0.23
672.895	4.23
672.926	-7.77
672.957	-5.77
672.989	7.23
673.02	-11.77
673.051	-1.77
673.082	18.23
673.113	-18.77
673.144	4.23
673.175	10.23
673.206	-2.77
673.238	-7.77
673.269	1.23
673.3	-3.77
673.331	6.23
673.362	-7.77
673.393	4.23
673.424	4.23
673.455	18.23
673.487	-2.77
673.518	18.23
673.549	13.23
673.58	-0.77
673.611	-7.77
673.642	-3.77
673.673	-16.77
673.704	1.23
673.735	0.23
673.766	-11.77
673.797	2.23
673.828	13.23
673.86	-5.77
673.891	-4.77
673.922	-22.77
673.953	-17.77
673.984	1.23
674.015	-6.77
674.046	7.23
674.077	3.23
674.108	-14.77
674.139	-17.77
674.17	-2.77
674.201	-5.77
674.232	-5.77
674.263	3.23
674.294	-9.77
674.325	-22.77
674.356	-12.77
674.387	-3.77
674.418	16.23
674.449	0.23
674.48	-9.77
674.511	-2.77
674.542	-1.77
674.573	-16.77
674.604	13.23
674.635	-11.77
674.666	-3.77
674.697	6.23
674.728	0.23
674.759	2.23
674.79	-5.77
674.821	-7.77
674.852	4.23
674.883	-14.77
674.914	2.23
674.945	-10.77
674.976	-2.77
675.007	-5.77
675.038	-15.77
675.069	-10.77
675.1	4.23
675.131	-5.77
675.162	-6.77
675.193	-12.77
675.224	2.23
675.254	12.23
675.285	-1.77
675.316	22.23
675.347	11.23
675.378	-3.77
675.409	-10.77
675.44	-2.77
675.471	0.23
675.502	-6.77
675.533	-8.77
675.564	0.23
675.595	0.23
675.625	14.23
675.656	20.23
675.687	-0.77
675.718	-5.77
675.749	17.23
675.78	7.23
675.811	-7.77
675.842	1.23
675.873	-10.77
675.903	-5.77
675.934	-9.77
675.965	-3.77
675.996	-11.77
676.027	9.23
676.058	-3.77
676.089	-10.77
676.119	-10.77
676.15	-11.77
676.181	-9.77
676.212	0.23
676.243	1.23
676.274	-4.77
676.304	8.23
676.335	-0.77
676.366	-0.77
676.397	-12.77
676.428	-5.77
676.459	17.23
676.489	10.23
676.52	20.23
676.551	4.23
676.582	-9.77
676.613	-3.77
676.643	-14.77
676.674	22.23
676.705	-1.77
676.736	5.23
676.767	14.23
676.797	2.23
676.828	21.23
676.859	-3.77
676.89	-11.77
676.92	-1.77
676.951	5.23
676.982	-3.77
677.013	-3.77
677.044	3.23
677.074	7.23
677.105	-15.77
677.136	-0.77
677.167	0.23
677.197	12.23
677.228	-0.77
677.259	-1.77
677.289	-10.77
677.32	-27.77
677.351	-5.77
677.382	-2.77
677.412	1.23
677.443	-2.77
677.474	-5.77
677.505	-20.77
677.535	-3.77
677.566	0.23
677.597	-6.77
677.627	-21.77
677.658	-13.77
677.689	-1.77
677.72	5.23
677.75	15.23
677.781	-0.77
677.812	-7.77
677.842	16.23
677.873	5.23
677.904	1.23
677.934	-5.77
677.965	-14.77
677.996	-13.77
678.026	-18.77
678.057	-2.77
678.088	-22.77
678.118	1.23
678.149	-13.77
678.18	-4.77
678.21	-6.77
678.241	1.23
678.272	0.23
678.302	4.23
678.333	5.23
678.363	5.23
678.394	-2.77
678.425	5.23
678.455	1.23
678.486	20.23
678.517	-8.77
678.547	7.23
678.578	-7.77
678.608	-19.77
678.639	-0.77
678.67	15.23
678.7	18.23
678.731	8.23
678.761	9.23
678.792	5.23
678.823	21.23
678.853	-4.77
678.884	-23.77
678.914	4.23
678.945	3.23
678.975	1.23
679.006	-13.77
679.037	-1.77
679.067	22.23
679.098	12.23
679.128	-4.77
679.159	-2.77
679.189	6.23
679.22	-12.77
679.25	-6.77
679.281	-4.77
679.312	5.23
679.342	-3.77
679.373	12.23
679.403	0.23
679.434	1.23
679.464	1.23
679.495	-3.77
679.525	6.23
679.556	9.23
679.586	3.23
679.617	2.23
679.647	-0.77
679.678	-10.77
679.708	-14.77
679.739	3.23
679.769	-9.77
679.8	-7.77
679.83	5.23
679.861	5.23
679.891	1.23
679.922	-0.77
679.952	9.23
679.983	15.23
680.013	7.23
680.044	-16.77
680.074	4.23
680.105	-2.77
680.135	4.23
680.165	7.23
680.196	5.23
680.226	0.23
680.257	12.23
680.287	10.23
680.318	0.23
680.348	-10.77
680.379	3.23
680.409	-3.77
680.439	-9.77
680.47	1.23
680.5	-7.77
680.531	-11.77
680.561	5.23
680.592	-7.77
680.622	1.23
680.652	10.23
680.683	3.23
680.713	-10.77
680.744	4.23
680.774	1.23
680.804	14.23
680.835	1.23
680.865	-6.77
680.896	28.23
680.926	22.23
680.956	1.23
680.987	0.23
681.017	-3.77
681.047	-0.77
681.078	-10.77
681.108	-5.77
681.139	10.23
681.169	-15.77
681.199	-13.77
681.23	-2.77
681.26	-4.77
681.29	-1.77
681.321	-19.77
681.351	-3.77
681.381	-13.77
681.412	0.23
681.442	-0.77
681.472	8.23
681.503	1.23
681.533	11.23
681.563	0.23
681.594	-0.77
681.624	6.23
681.654	-5.77
681.685	-7.77
681.715	-2.77
681.745	-16.77
681.775	-10.77
681.806	13.23
681.836	12.23
681.866	-8.77
681.897	-2.77
681.927	-15.77
681.957	-4.77
681.987	23.23
682.018	10.23
682.048	22.23
682.078	4.23
682.109	10.23
682.139	33.23
682.169	-11.77
682.199	-8.77
682.23	-12.77
682.26	-5.77
682.29	-14.77
682.32	-10.77
682.351	-13.77
682.381	-0.77
682.411	-3.77
