Data from HighRes_mercury_15_13_11_07_2024_HR4C61891__70__15-14-30-185.txt Node

Date: Thu Nov 07 15:14:30 EST 2024
User: crc00042
Spectrometer: HR4C6189
Trigger mode: 4
Integration Time (sec): 1.000000E-1
Scans to average: 1
Electric dark correction enabled: true
Nonlinearity correction enabled: false
Boxcar width: 0
XAxis mode: Wavelengths
Number of Pixels in Spectrum: 3648
>>>>>Begin Spectral Data<<<<<
639.567	-63.46
639.602	-63.46
639.636	-63.46
639.67	-46.46
639.704	-31.46
639.738	-2.46
639.773	8.54
639.807	-6.46
639.841	-1.46
639.875	14.54
639.909	-1.46
639.943	-14.46
639.978	-5.46
640.012	6.54
640.046	10.54
640.08	-2.46
640.114	-0.46
640.148	-5.46
640.182	-24.46
640.217	-19.46
640.251	1.54
640.285	6.54
640.319	-15.46
640.353	9.54
640.387	-14.46
640.421	-4.46
640.455	-7.46
640.49	1.54
640.524	-5.46
640.558	2.54
640.592	-6.46
640.626	-8.46
640.66	-1.46
640.694	-23.46
640.728	4.54
640.762	-12.46
640.796	-0.46
640.83	12.54
640.865	-2.46
640.899	-8.46
640.933	0.54
640.967	-7.46
641.001	-4.46
641.035	-2.46
641.069	-12.46
641.103	-1.46
641.137	1.54
641.171	-18.46
641.205	4.54
641.239	0.54
641.273	13.54
641.307	-8.46
641.341	-5.46
641.375	-13.46
641.409	-13.46
641.443	1.54
641.477	9.54
641.511	14.54
641.545	8.54
641.579	-0.46
641.614	-17.46
641.648	-8.46
641.682	-13.46
641.716	7.54
641.75	3.54
641.784	7.54
641.818	14.54
641.852	-3.46
641.886	-14.46
641.919	14.54
641.953	-2.46
641.987	-23.46
642.021	-22.46
642.055	-10.46
642.089	-11.46
642.123	-0.46
642.157	-2.46
642.191	-6.46
642.225	1.54
642.259	-25.46
642.293	-20.46
642.327	9.54
642.361	-1.46
642.395	10.54
642.429	2.54
642.463	6.54
642.497	27.54
642.531	6.54
642.565	-23.46
642.599	-7.46
642.633	-9.46
642.666	3.54
642.7	-2.46
642.734	5.54
642.768	0.54
642.802	-14.46
642.836	1.54
642.87	1.54
642.904	13.54
642.938	3.54
642.972	-2.46
643.005	8.54
643.039	4.54
643.073	4.54
643.107	2.54
643.141	-5.46
643.175	-5.46
643.209	-4.46
643.243	-15.46
643.276	0.54
643.31	-26.46
643.344	-9.46
643.378	-1.46
643.412	-7.46
643.446	6.54
643.48	-10.46
643.513	-8.46
643.547	-11.46
643.581	-17.46
643.615	4.54
643.649	-18.46
643.683	-15.46
643.716	-10.46
643.75	-0.46
643.784	-22.46
643.818	6.54
643.852	-0.46
643.886	2.54
643.919	-12.46
643.953	-11.46
643.987	-8.46
644.021	-2.46
644.055	-0.46
644.088	-9.46
644.122	-6.46
644.156	-14.46
644.19	-8.46
644.224	-4.46
644.257	7.54
644.291	-0.46
644.325	-4.46
644.359	-21.46
644.392	10.54
644.426	-3.46
644.46	6.54
644.494	-4.46
644.527	-7.46
644.561	5.54
644.595	-0.46
644.629	-5.46
644.662	-5.46
644.696	16.54
644.73	0.54
644.764	0.54
644.797	0.54
644.831	-9.46
644.865	14.54
644.899	19.54
644.932	21.54
644.966	-17.46
645	9.54
645.033	8.54
645.067	-14.46
645.101	-5.46
645.135	5.54
645.168	-14.46
645.202	-1.46
645.236	-6.46
645.269	-2.46
645.303	-5.46
645.337	-34.46
645.37	-14.46
645.404	3.54
645.438	-2.46
645.471	-6.46
645.505	12.54
645.539	-11.46
645.572	0.54
645.606	-5.46
645.64	-3.46
645.673	-3.46
645.707	16.54
645.741	-1.46
645.774	-19.46
645.808	-4.46
645.842	7.54
645.875	20.54
645.909	-8.46
645.943	-6.46
645.976	0.54
646.01	2.54
646.043	9.54
646.077	4.54
646.111	-4.46
646.144	9.54
646.178	-0.46
646.212	-2.46
646.245	-5.46
646.279	-7.46
646.312	2.54
646.346	14.54
646.38	7.54
646.413	-4.46
646.447	0.54
646.48	-1.46
646.514	4.54
646.547	-12.46
646.581	-0.46
646.615	-16.46
646.648	-3.46
646.682	11.54
646.715	-6.46
646.749	-1.46
646.782	-4.46
646.816	-13.46
646.85	-4.46
646.883	-19.46
646.917	-2.46
646.95	-7.46
646.984	8.54
647.017	-1.46
647.051	6.54
647.084	0.54
647.118	-0.46
647.151	-18.46
647.185	-10.46
647.218	-18.46
647.252	-4.46
647.285	-7.46
647.319	-4.46
647.353	-3.46
647.386	11.54
647.42	4.54
647.453	-12.46
647.487	-8.46
647.52	-8.46
647.553	-15.46
647.587	-7.46
647.62	-12.46
647.654	-4.46
647.687	-7.46
647.721	5.54
647.754	-11.46
647.788	0.54
647.821	-3.46
647.855	-6.46
647.888	-3.46
647.922	17.54
647.955	3.54
647.989	-4.46
648.022	0.54
648.055	-5.46
648.089	7.54
648.122	14.54
648.156	1.54
648.189	-4.46
648.223	-6.46
648.256	3.54
648.29	-4.46
648.323	-17.46
648.356	-2.46
648.39	-0.46
648.423	-11.46
648.457	-13.46
648.49	-7.46
648.523	11.54
648.557	3.54
648.59	-6.46
648.624	-7.46
648.657	-3.46
648.69	0.54
648.724	-6.46
648.757	-3.46
648.791	-3.46
648.824	11.54
648.857	19.54
648.891	-5.46
648.924	-16.46
648.957	-1.46
648.991	-23.46
649.024	0.54
649.057	-14.46
649.091	4.54
649.124	-5.46
649.158	6.54
649.191	9.54
649.224	-2.46
649.258	3.54
649.291	12.54
649.324	8.54
649.358	-9.46
649.391	-6.46
649.424	-3.46
649.458	-6.46
649.491	14.54
649.524	2.54
649.557	-1.46
649.591	-2.46
649.624	11.54
649.657	-9.46
649.691	-6.46
649.724	-3.46
649.757	-3.46
649.791	-15.46
649.824	16.54
649.857	15.54
649.89	-0.46
649.924	-13.46
649.957	-9.46
649.99	-27.46
650.023	-2.46
650.057	-11.46
650.09	1.54
650.123	-2.46
650.157	5.54
650.19	0.54
650.223	-12.46
650.256	-17.46
650.29	-3.46
650.323	-0.46
650.356	7.54
650.389	7.54
650.423	-4.46
650.456	7.54
650.489	-10.46
650.522	-8.46
650.555	-0.46
650.589	3.54
650.622	-9.46
650.655	13.54
650.688	-5.46
650.721	-10.46
650.755	-18.46
650.788	2.54
650.821	-5.46
650.854	5.54
650.887	-3.46
650.921	-13.46
650.954	-10.46
650.987	-6.46
651.02	-16.46
651.053	-20.46
651.087	-10.46
651.12	-5.46
651.153	-8.46
651.186	-8.46
651.219	-27.46
651.252	-8.46
651.286	-4.46
651.319	-10.46
651.352	-4.46
651.385	-1.46
651.418	-10.46
651.451	-4.46
651.484	-13.46
651.518	-17.46
651.551	2.54
651.584	-11.46
651.617	10.54
651.65	11.54
651.683	-3.46
651.716	-15.46
651.749	-30.46
651.783	-17.46
651.816	-0.46
651.849	6.54
651.882	-1.46
651.915	-6.46
651.948	-11.46
651.981	-19.46
652.014	-29.46
652.047	-23.46
652.08	-21.46
652.114	-1.46
652.147	-3.46
652.18	1.54
652.213	21.54
652.246	-8.46
652.279	-11.46
652.312	2.54
652.345	-3.46
652.378	-6.46
652.411	0.54
652.444	-8.46
652.477	-19.46
652.51	-4.46
652.543	-18.46
652.576	-5.46
652.609	-10.46
652.642	2.54
652.675	5.54
652.709	-1.46
652.742	-1.46
652.775	-11.46
652.808	-2.46
652.841	-2.46
652.874	0.54
652.907	-5.46
652.94	-15.46
652.973	-24.46
653.006	-10.46
653.039	-12.46
653.072	-1.46
653.105	-2.46
653.138	-16.46
653.171	-9.46
653.204	-4.46
653.237	-5.46
653.27	-20.46
653.303	3.54
653.336	-7.46
653.368	-9.46
653.401	-10.46
653.434	-19.46
653.467	-11.46
653.5	-10.46
653.533	-33.46
653.566	-3.46
653.599	-3.46
653.632	2.54
653.665	0.54
653.698	-17.46
653.731	-10.46
653.764	7.54
653.797	-2.46
653.83	6.54
653.863	-11.46
653.896	-20.46
653.929	-6.46
653.961	4.54
653.994	-12.46
654.027	-21.46
654.06	3.54
654.093	-5.46
654.126	-0.46
654.159	-3.46
654.192	-11.46
654.225	-15.46
654.258	-10.46
654.29	-4.46
654.323	-10.46
654.356	-1.46
654.389	-0.46
654.422	-1.46
654.455	-4.46
654.488	2.54
654.521	-15.46
654.553	-10.46
654.586	-7.46
654.619	-3.46
654.652	-11.46
654.685	-2.46
654.718	-7.46
654.751	-9.46
654.783	-16.46
654.816	17.54
654.849	8.54
654.882	2.54
654.915	-10.46
654.948	-0.46
654.98	-9.46
655.013	-2.46
655.046	-11.46
655.079	-17.46
655.112	-7.46
655.144	-11.46
655.177	-5.46
655.21	0.54
655.243	9.54
655.276	-1.46
655.308	-15.46
655.341	-29.46
655.374	-3.46
655.407	-15.46
655.44	-8.46
655.472	11.54
655.505	-15.46
655.538	-18.46
655.571	0.54
655.603	-13.46
655.636	-5.46
655.669	-3.46
655.702	-21.46
655.734	-16.46
655.767	-0.46
655.8	-14.46
655.833	-2.46
655.865	-1.46
655.898	-12.46
655.931	-14.46
655.964	-6.46
655.996	-2.46
656.029	-9.46
656.062	-8.46
656.095	0.54
656.127	-12.46
656.16	-10.46
656.193	-8.46
656.225	7.54
656.258	26.54
656.291	-8.46
656.324	13.54
656.356	7.54
656.389	-4.46
656.422	5.54
656.454	-17.46
656.487	4.54
656.52	-0.46
656.552	-7.46
656.585	-16.46
656.618	-8.46
656.65	0.54
656.683	-21.46
656.716	-0.46
656.748	8.54
656.781	-18.46
656.814	-24.46
656.846	-2.46
656.879	-22.46
656.912	-12.46
656.944	-19.46
656.977	-13.46
657.01	-14.46
657.042	-11.46
657.075	-1.46
657.108	-11.46
657.14	9.54
657.173	-7.46
657.205	17.54
657.238	-2.46
657.271	-7.46
657.303	-11.46
657.336	-13.46
657.369	-0.46
657.401	0.54
657.434	-2.46
657.466	-5.46
657.499	-25.46
657.532	-5.46
657.564	-1.46
657.597	2.54
657.629	5.54
657.662	-7.46
657.694	-13.46
657.727	-34.46
657.76	3.54
657.792	-0.46
657.825	-4.46
657.857	-3.46
657.89	10.54
657.922	5.54
657.955	-25.46
657.987	-24.46
658.02	1.54
658.053	15.54
658.085	-4.46
658.118	3.54
658.15	5.54
658.183	15.54
658.215	-10.46
658.248	-6.46
658.28	-25.46
658.313	-1.46
658.345	4.54
658.378	-16.46
658.41	-12.46
658.443	2.54
658.475	-3.46
658.508	-18.46
658.54	-16.46
658.573	-28.46
658.605	12.54
658.638	-5.46
658.67	-20.46
658.703	-8.46
658.735	-14.46
658.768	1.54
658.8	-27.46
658.833	10.54
658.865	-2.46
658.898	-1.46
658.93	-20.46
658.963	-16.46
658.995	-14.46
659.028	-11.46
659.06	-3.46
659.092	-7.46
659.125	-22.46
659.157	4.54
659.19	-14.46
659.222	-16.46
659.255	0.54
659.287	5.54
659.32	0.54
659.352	0.54
659.384	-12.46
659.417	-15.46
659.449	1.54
659.482	3.54
659.514	-14.46
659.546	-15.46
659.579	-19.46
659.611	-8.46
659.644	-13.46
659.676	-9.46
659.708	8.54
659.741	-0.46
659.773	1.54
659.806	-3.46
659.838	-9.46
659.87	-19.46
659.903	-15.46
659.935	3.54
659.967	4.54
660	-7.46
660.032	-23.46
660.065	11.54
660.097	-7.46
660.129	-12.46
660.162	-12.46
660.194	-11.46
660.226	-14.46
660.259	-3.46
660.291	-9.46
660.323	-0.46
660.356	2.54
660.388	-21.46
660.42	-6.46
660.453	-3.46
660.485	-3.46
660.517	13.54
660.55	4.54
660.582	0.54
660.614	6.54
660.647	-17.46
660.679	-37.46
660.711	5.54
660.743	-5.46
660.776	0.54
660.808	-1.46
660.84	-10.46
660.873	-10.46
660.905	5.54
660.937	-10.46
660.969	-9.46
661.002	-0.46
661.034	10.54
661.066	-10.46
661.099	0.54
661.131	22.54
661.163	0.54
661.195	-1.46
661.228	8.54
661.26	-1.46
661.292	-7.46
661.324	5.54
661.357	-7.46
661.389	-5.46
661.421	-0.46
661.453	0.54
661.485	1.54
661.518	-5.46
661.55	-17.46
661.582	-7.46
661.614	-7.46
661.647	-5.46
661.679	-10.46
661.711	5.54
661.743	-20.46
661.775	-13.46
661.808	7.54
661.84	-21.46
661.872	-8.46
661.904	-14.46
661.936	-12.46
661.969	-8.46
662.001	-0.46
662.033	5.54
662.065	-5.46
662.097	19.54
662.129	5.54
662.162	-6.46
662.194	-0.46
662.226	-2.46
662.258	-5.46
662.29	-8.46
662.322	-10.46
662.355	-14.46
662.387	17.54
662.419	14.54
662.451	-3.46
662.483	4.54
662.515	-1.46
662.547	-4.46
662.58	-0.46
662.612	-20.46
662.644	-20.46
662.676	-2.46
662.708	22.54
662.74	-7.46
662.772	1.54
662.804	-2.46
662.836	-3.46
662.869	7.54
662.901	11.54
662.933	-3.46
662.965	4.54
662.997	0.54
663.029	-28.46
663.061	-5.46
663.093	-0.46
663.125	-0.46
663.157	-1.46
663.189	-8.46
663.221	9.54
663.254	-11.46
663.286	0.54
663.318	1.54
663.35	-9.46
663.382	-8.46
663.414	1.54
663.446	-3.46
663.478	-15.46
663.51	17.54
663.542	-1.46
663.574	18.54
663.606	-5.46
663.638	-13.46
663.67	-15.46
663.702	-4.46
663.734	0.54
663.766	8.54
663.798	-4.46
663.83	1.54
663.862	25.54
663.894	1.54
663.926	-4.46
663.958	-7.46
663.99	2.54
664.022	0.54
664.054	2.54
664.086	-6.46
664.118	-23.46
664.15	-20.46
664.182	2.54
664.214	7.54
664.246	-0.46
664.278	3.54
664.31	16.54
664.342	6.54
664.374	13.54
664.406	-4.46
664.438	-12.46
664.47	22.54
664.502	1.54
664.534	12.54
664.566	-12.46
664.598	6.54
664.63	-11.46
664.662	14.54
664.693	-4.46
664.725	-5.46
664.757	-29.46
664.789	-10.46
664.821	-2.46
664.853	3.54
664.885	-14.46
664.917	-0.46
664.949	-7.46
664.981	13.54
665.013	10.54
665.045	-20.46
665.076	-15.46
665.108	3.54
665.14	-6.46
665.172	11.54
665.204	8.54
665.236	-7.46
665.268	-0.46
665.3	-17.46
665.331	-11.46
665.363	-0.46
665.395	-14.46
665.427	-11.46
665.459	-4.46
665.491	-6.46
665.523	-7.46
665.555	-17.46
665.586	-4.46
665.618	3.54
665.65	-8.46
665.682	17.54
665.714	5.54
665.746	-18.46
665.777	0.54
665.809	-0.46
665.841	-4.46
665.873	-9.46
665.905	9.54
665.937	-3.46
665.968	-5.46
666	6.54
666.032	-9.46
666.064	-8.46
666.096	5.54
666.127	-3.46
666.159	9.54
666.191	8.54
666.223	-8.46
666.255	-15.46
666.286	5.54
666.318	-8.46
666.35	2.54
666.382	-10.46
666.413	-10.46
666.445	-9.46
666.477	-8.46
666.509	-3.46
666.54	-6.46
666.572	-7.46
666.604	-2.46
666.636	-5.46
666.667	4.54
666.699	-3.46
666.731	-17.46
666.763	-16.46
666.794	-22.46
666.826	-20.46
666.858	-26.46
666.89	6.54
666.921	5.54
666.953	2.54
666.985	10.54
667.017	14.54
667.048	7.54
667.08	-5.46
667.112	1.54
667.143	-11.46
667.175	-6.46
667.207	-10.46
667.238	-4.46
667.27	-4.46
667.302	3.54
667.334	-1.46
667.365	1.54
667.397	9.54
667.429	-8.46
667.46	0.54
667.492	4.54
667.524	-6.46
667.555	-10.46
667.587	-0.46
667.619	-3.46
667.65	-14.46
667.682	10.54
667.714	15.54
667.745	11.54
667.777	-0.46
667.808	-15.46
667.84	-12.46
667.872	2.54
667.903	15.54
667.935	-16.46
667.967	-10.46
667.998	4.54
668.03	-1.46
668.061	-17.46
668.093	-12.46
668.125	-6.46
668.156	-2.46
668.188	-16.46
668.22	-11.46
668.251	-6.46
668.283	1.54
668.314	22.54
668.346	4.54
668.377	23.54
668.409	7.54
668.441	21.54
668.472	9.54
668.504	15.54
668.535	-0.46
668.567	6.54
668.599	-16.46
668.63	-9.46
668.662	-9.46
668.693	3.54
668.725	-10.46
668.756	1.54
668.788	-4.46
668.819	0.54
668.851	-3.46
668.882	-4.46
668.914	-4.46
668.946	-4.46
668.977	-7.46
669.009	-2.46
669.04	-13.46
669.072	-8.46
669.103	-17.46
669.135	-10.46
669.166	-15.46
669.198	-16.46
669.229	-0.46
669.261	-15.46
669.292	-11.46
669.324	11.54
669.355	-17.46
669.387	-16.46
669.418	-14.46
669.45	-21.46
669.481	-3.46
669.513	7.54
669.544	-0.46
669.576	-8.46
669.607	16.54
669.639	13.54
669.67	-16.46
669.701	-4.46
669.733	-13.46
669.764	-0.46
669.796	-9.46
669.827	-19.46
669.859	-22.46
669.89	5.54
669.922	9.54
669.953	-5.46
669.985	-5.46
670.016	13.54
670.047	3.54
670.079	-2.46
670.11	-0.46
670.142	-6.46
670.173	9.54
670.204	3.54
670.236	-2.46
670.267	-14.46
670.299	-15.46
670.33	-34.46
670.362	-5.46
670.393	2.54
670.424	11.54
670.456	2.54
670.487	-13.46
670.518	-4.46
670.55	-11.46
670.581	-8.46
670.613	-8.46
670.644	-7.46
670.675	-24.46
670.707	-6.46
670.738	-4.46
670.769	-4.46
670.801	-15.46
670.832	-15.46
670.864	-23.46
670.895	-16.46
670.926	-22.46
670.958	-5.46
670.989	-15.46
671.02	-19.46
671.052	-3.46
671.083	1.54
671.114	-13.46
671.146	3.54
671.177	0.54
671.208	-20.46
671.24	-8.46
671.271	-8.46
671.302	11.54
671.333	-11.46
671.365	-12.46
671.396	-19.46
671.427	-13.46
671.459	-0.46
671.49	11.54
671.521	11.54
671.553	6.54
671.584	12.54
671.615	-13.46
671.646	-13.46
671.678	-10.46
671.709	-7.46
671.74	-9.46
671.771	0.54
671.803	-8.46
671.834	-14.46
671.865	-2.46
671.896	10.54
671.928	-10.46
671.959	-25.46
671.99	14.54
672.021	-9.46
672.053	-15.46
672.084	1.54
672.115	-2.46
672.146	-10.46
672.178	-8.46
672.209	-19.46
672.24	-3.46
672.271	32.54
672.303	0.54
672.334	-3.46
672.365	6.54
672.396	-4.46
672.427	11.54
672.459	8.54
672.49	12.54
672.521	-6.46
672.552	-20.46
672.583	0.54
672.615	-9.46
672.646	4.54
672.677	-8.46
672.708	-4.46
672.739	-9.46
672.77	-2.46
672.802	-11.46
672.833	-7.46
672.864	-12.46
672.895	-3.46
672.926	-8.46
672.957	-11.46
672.989	-13.46
673.02	-18.46
673.051	-23.46
673.082	10.54
673.113	-11.46
673.144	-7.46
673.175	-3.46
673.206	2.54
673.238	-1.46
673.269	-10.46
673.3	-14.46
673.331	0.54
673.362	-5.46
673.393	-15.46
673.424	-12.46
673.455	-2.46
673.487	-8.46
673.518	9.54
673.549	-14.46
673.58	-14.46
673.611	-14.46
673.642	-13.46
673.673	-40.46
673.704	1.54
673.735	-2.46
673.766	-7.46
673.797	-7.46
673.828	-4.46
673.86	-8.46
673.891	-32.46
673.922	-24.46
673.953	-4.46
673.984	3.54
674.015	-5.46
674.046	-19.46
674.077	-6.46
674.108	2.54
674.139	-17.46
674.17	-14.46
674.201	-22.46
674.232	-3.46
674.263	-3.46
674.294	-5.46
674.325	-2.46
674.356	1.54
674.387	12.54
674.418	11.54
674.449	-5.46
674.48	-2.46
674.511	4.54
674.542	2.54
674.573	-23.46
674.604	1.54
674.635	-1.46
674.666	9.54
674.697	4.54
674.728	-11.46
674.759	-4.46
674.79	-6.46
674.821	-14.46
674.852	-16.46
674.883	-13.46
674.914	-8.46
674.945	-20.46
674.976	-4.46
675.007	-6.46
675.038	-7.46
675.069	-10.46
675.1	-8.46
675.131	6.54
675.162	-8.46
675.193	-7.46
675.224	-8.46
675.254	-1.46
675.285	-1.46
675.316	-8.46
675.347	-10.46
675.378	-16.46
675.409	-28.46
675.44	-4.46
675.471	-4.46
675.502	-4.46
675.533	-2.46
675.564	-1.46
675.595	-7.46
675.625	18.54
675.656	12.54
675.687	5.54
675.718	-23.46
675.749	14.54
675.78	-16.46
675.811	0.54
675.842	-6.46
675.873	-15.46
675.903	-28.46
675.934	-12.46
675.965	-20.46
675.996	-19.46
676.027	10.54
676.058	-20.46
676.089	-21.46
676.119	-6.46
676.15	-4.46
676.181	-8.46
676.212	-20.46
676.243	8.54
676.274	-14.46
676.304	10.54
676.335	-12.46
676.366	-2.46
676.397	-11.46
676.428	-2.46
676.459	6.54
676.489	-5.46
676.52	14.54
676.551	-0.46
676.582	-14.46
676.613	4.54
676.643	-24.46
676.674	9.54
676.705	-9.46
676.736	-4.46
676.767	4.54
676.797	-11.46
676.828	-3.46
676.859	3.54
676.89	-3.46
676.92	-1.46
676.951	13.54
676.982	3.54
677.013	-3.46
677.044	23.54
677.074	1.54
677.105	-10.46
677.136	-3.46
677.167	-6.46
677.197	3.54
677.228	-12.46
677.259	-17.46
677.289	-14.46
677.32	-14.46
677.351	-7.46
677.382	-8.46
677.412	-12.46
677.443	-11.46
677.474	-14.46
677.505	-19.46
677.535	-1.46
677.566	-0.46
677.597	-4.46
677.627	-17.46
677.658	-7.46
677.689	-3.46
677.72	1.54
677.75	-9.46
677.781	-10.46
677.812	-11.46
677.842	-12.46
677.873	-8.46
677.904	-6.46
677.934	-16.46
677.965	-3.46
677.996	-16.46
678.026	-17.46
678.057	1.54
678.088	-8.46
678.118	-9.46
678.149	-12.46
678.18	-5.46
678.21	-1.46
678.241	-8.46
678.272	5.54
678.302	-3.46
678.333	11.54
678.363	1.54
678.394	-12.46
678.425	-21.46
678.455	8.54
678.486	15.54
678.517	-3.46
678.547	3.54
678.578	-1.46
678.608	-20.46
678.639	-1.46
678.67	-3.46
678.7	-15.46
678.731	-17.46
678.761	-7.46
678.792	1.54
678.823	2.54
678.853	6.54
678.884	-12.46
678.914	1.54
678.945	4.54
678.975	-26.46
679.006	-2.46
679.037	-13.46
679.067	18.54
679.098	1.54
679.128	-16.46
679.159	-9.46
679.189	-4.46
679.22	-28.46
679.25	4.54
679.281	0.54
679.312	-21.46
679.342	-15.46
679.373	-1.46
679.403	-14.46
679.434	-3.46
679.464	7.54
679.495	1.54
679.525	3.54
679.556	-6.46
679.586	-1.46
679.617	-4.46
679.647	8.54
679.678	1.54
679.708	-2.46
679.739	-22.46
679.769	-15.46
679.8	13.54
679.83	-4.46
679.861	14.54
679.891	-8.46
679.922	-19.46
679.952	6.54
679.983	15.54
680.013	10.54
680.044	-11.46
680.074	-3.46
680.105	-6.46
680.135	-2.46
680.165	7.54
680.196	1.54
680.226	-2.46
680.257	-7.46
680.287	-11.46
680.318	-4.46
680.348	-9.46
680.379	-5.46
680.409	-9.46
680.439	-21.46
680.47	-14.46
680.5	3.54
680.531	-1.46
680.561	12.54
680.592	1.54
680.622	17.54
680.652	-6.46
680.683	3.54
680.713	-11.46
680.744	-2.46
680.774	-14.46
680.804	9.54
680.835	-5.46
680.865	-24.46
680.896	16.54
680.926	7.54
680.956	4.54
680.987	1.54
681.017	-4.46
681.047	14.54
681.078	-12.46
681.108	-8.46
681.139	-7.46
681.169	-5.46
681.199	-2.46
681.23	4.54
681.26	0.54
681.29	-8.46
681.321	-18.46
681.351	-16.46
681.381	-17.46
681.412	-4.46
681.442	7.54
681.472	6.54
681.503	8.54
681.533	-8.46
681.563	-13.46
681.594	-14.46
681.624	-4.46
681.654	-0.46
681.685	12.54
681.715	3.54
681.745	3.54
