Data from HighRes_mercury_15_13_11_07_2024_HR4C61891__35__15-14-26-686.txt Node

Date: Thu Nov 07 15:14:26 EST 2024
User: crc00042
Spectrometer: HR4C6189
Trigger mode: 4
Integration Time (sec): 1.000000E-1
Scans to average: 1
Electric dark correction enabled: true
Nonlinearity correction enabled: false
Boxcar width: 0
XAxis mode: Wavelengths
Number of Pixels in Spectrum: 3648
>>>>>Begin Spectral Data<<<<<
639.567	-53.15
639.602	-53.15
639.636	-53.15
639.67	-39.15
639.704	-33.15
639.738	2.85
639.773	11.85
639.807	-17.15
639.841	4.85
639.875	11.85
639.909	0.85
639.943	-3.15
639.978	4.85
640.012	-0.15
640.046	-1.15
640.08	-5.15
640.114	-0.15
640.148	-10.15
640.182	0.85
640.217	-3.15
640.251	19.85
640.285	3.85
640.319	-14.15
640.353	-9.15
640.387	2.85
640.421	-20.15
640.455	-21.15
640.49	-9.15
640.524	-13.15
640.558	16.85
640.592	17.85
640.626	-9.15
640.66	-0.15
640.694	-0.15
640.728	-2.15
640.762	25.85
640.796	17.85
640.83	10.85
640.865	-1.15
640.899	-14.15
640.933	-0.15
640.967	-4.15
641.001	4.85
641.035	-8.15
641.069	-0.15
641.103	5.85
641.137	13.85
641.171	-12.15
641.205	6.85
641.239	-23.15
641.273	4.85
641.307	-3.15
641.341	0.85
641.375	1.85
641.409	0.85
641.443	4.85
641.477	7.85
641.511	3.85
641.545	-0.15
641.579	12.85
641.614	4.85
641.648	0.85
641.682	-7.15
641.716	17.85
641.75	11.85
641.784	0.85
641.818	-7.15
641.852	-0.15
641.886	-12.15
641.919	6.85
641.953	4.85
641.987	-1.15
642.021	-4.15
642.055	4.85
642.089	-1.15
642.123	2.85
642.157	6.85
642.191	1.85
642.225	13.85
642.259	6.85
642.293	5.85
642.327	-0.15
642.361	-14.15
642.395	9.85
642.429	7.85
642.463	16.85
642.497	8.85
642.531	-11.15
642.565	-4.15
642.599	-2.15
642.633	-25.15
642.666	1.85
642.7	0.85
642.734	11.85
642.768	-11.15
642.802	-5.15
642.836	1.85
642.87	-6.15
642.904	12.85
642.938	11.85
642.972	-6.15
643.005	6.85
643.039	9.85
643.073	-0.15
643.107	-1.15
643.141	0.85
643.175	10.85
643.209	-13.15
643.243	-10.15
643.276	-22.15
643.31	-1.15
643.344	-7.15
643.378	1.85
643.412	2.85
643.446	4.85
643.48	-5.15
643.513	-6.15
643.547	4.85
643.581	-9.15
643.615	-6.15
643.649	14.85
643.683	8.85
643.716	6.85
643.75	-4.15
643.784	-10.15
643.818	6.85
643.852	-3.15
643.886	1.85
643.919	4.85
643.953	-6.15
643.987	-10.15
644.021	9.85
644.055	17.85
644.088	4.85
644.122	-3.15
644.156	-14.15
644.19	2.85
644.224	-0.15
644.257	1.85
644.291	18.85
644.325	1.85
644.359	-0.15
644.392	11.85
644.426	8.85
644.46	22.85
644.494	-8.15
644.527	0.85
644.561	-4.15
644.595	12.85
644.629	-5.15
644.662	-0.15
644.696	20.85
644.73	7.85
644.764	-2.15
644.797	-3.15
644.831	0.85
644.865	16.85
644.899	13.85
644.932	14.85
644.966	11.85
645	5.85
645.033	17.85
645.067	-3.15
645.101	-1.15
645.135	2.85
645.168	-6.15
645.202	1.85
645.236	-15.15
645.269	-5.15
645.303	-0.15
645.337	-14.15
645.37	-18.15
645.404	-10.15
645.438	12.85
645.471	9.85
645.505	19.85
645.539	-6.15
645.572	2.85
645.606	-10.15
645.64	-0.15
645.673	-7.15
645.707	9.85
645.741	5.85
645.774	-4.15
645.808	-1.15
645.842	-7.15
645.875	-1.15
645.909	3.85
645.943	-17.15
645.976	7.85
646.01	23.85
646.043	17.85
646.077	14.85
646.111	13.85
646.144	-0.15
646.178	2.85
646.212	-6.15
646.245	7.85
646.279	-6.15
646.312	-1.15
646.346	4.85
646.38	-10.15
646.413	15.85
646.447	4.85
646.48	8.85
646.514	24.85
646.547	-1.15
646.581	0.85
646.615	1.85
646.648	1.85
646.682	-0.15
646.715	-6.15
646.749	2.85
646.782	0.85
646.816	-9.15
646.85	5.85
646.883	1.85
646.917	8.85
646.95	15.85
646.984	7.85
647.017	1.85
647.051	7.85
647.084	-6.15
647.118	-9.15
647.151	-4.15
647.185	-4.15
647.218	-14.15
647.252	2.85
647.285	-15.15
647.319	-12.15
647.353	6.85
647.386	5.85
647.42	0.85
647.453	5.85
647.487	-0.15
647.52	6.85
647.553	15.85
647.587	22.85
647.62	12.85
647.654	3.85
647.687	7.85
647.721	4.85
647.754	-9.15
647.788	-6.15
647.821	-2.15
647.855	0.85
647.888	14.85
647.922	5.85
647.955	1.85
647.989	2.85
648.022	14.85
648.055	15.85
648.089	2.85
648.122	10.85
648.156	-2.15
648.189	-0.15
648.223	-0.15
648.256	23.85
648.29	9.85
648.323	6.85
648.356	15.85
648.39	17.85
648.423	0.85
648.457	-7.15
648.49	20.85
648.523	12.85
648.557	-0.15
648.59	-0.15
648.624	6.85
648.657	-14.15
648.69	27.85
648.724	12.85
648.757	0.85
648.791	9.85
648.824	8.85
648.857	3.85
648.891	-2.15
648.924	9.85
648.957	14.85
648.991	3.85
649.024	10.85
649.057	-5.15
649.091	-19.15
649.124	10.85
649.158	10.85
649.191	12.85
649.224	4.85
649.258	13.85
649.291	0.85
649.324	3.85
649.358	3.85
649.391	9.85
649.424	2.85
649.458	5.85
649.491	1.85
649.524	-8.15
649.557	-10.15
649.591	-15.15
649.624	6.85
649.657	1.85
649.691	0.85
649.724	3.85
649.757	-16.15
649.791	-15.15
649.824	9.85
649.857	15.85
649.89	5.85
649.924	-29.15
649.957	-6.15
649.99	-5.15
650.023	3.85
650.057	5.85
650.09	15.85
650.123	4.85
650.157	15.85
650.19	25.85
650.223	3.85
650.256	-19.15
650.29	6.85
650.323	7.85
650.356	5.85
650.389	-11.15
650.423	-13.15
650.456	0.85
650.489	-8.15
650.522	8.85
650.555	9.85
650.589	4.85
650.622	5.85
650.655	13.85
650.688	11.85
650.721	-3.15
650.755	-12.15
650.788	-4.15
650.821	-5.15
650.854	-6.15
650.887	6.85
650.921	-16.15
650.954	-5.15
650.987	0.85
651.02	-7.15
651.053	-13.15
651.087	-23.15
651.12	10.85
651.153	2.85
651.186	0.85
651.219	-12.15
651.252	-0.15
651.286	13.85
651.319	-3.15
651.352	6.85
651.385	-3.15
651.418	9.85
651.451	16.85
651.484	-2.15
651.518	-6.15
651.551	25.85
651.584	-0.15
651.617	14.85
651.65	2.85
651.683	13.85
651.716	-2.15
651.749	-10.15
651.783	-11.15
651.816	-3.15
651.849	7.85
651.882	1.85
651.915	-7.15
651.948	6.85
651.981	-4.15
652.014	-4.15
652.047	-4.15
652.08	-18.15
652.114	-11.15
652.147	4.85
652.18	-4.15
652.213	19.85
652.246	-4.15
652.279	4.85
652.312	2.85
652.345	8.85
652.378	4.85
652.411	9.85
652.444	8.85
652.477	4.85
652.51	8.85
652.543	-30.15
652.576	-13.15
652.609	-8.15
652.642	-2.15
652.675	28.85
652.709	-0.15
652.742	-8.15
652.775	2.85
652.808	12.85
652.841	-2.15
652.874	-1.15
652.907	-5.15
652.94	-8.15
652.973	-15.15
653.006	-1.15
653.039	-7.15
653.072	-14.15
653.105	0.85
653.138	-5.15
653.171	-9.15
653.204	9.85
653.237	11.85
653.27	10.85
653.303	9.85
653.336	14.85
653.368	-6.15
653.401	-7.15
653.434	-10.15
653.467	14.85
653.5	-0.15
653.533	-7.15
653.566	4.85
653.599	-7.15
653.632	-7.15
653.665	-7.15
653.698	-11.15
653.731	-13.15
653.764	5.85
653.797	-13.15
653.83	0.85
653.863	-3.15
653.896	-0.15
653.929	3.85
653.961	4.85
653.994	-6.15
654.027	-11.15
654.06	-0.15
654.093	2.85
654.126	6.85
654.159	-8.15
654.192	-10.15
654.225	-6.15
654.258	3.85
654.29	0.85
654.323	14.85
654.356	-9.15
654.389	-7.15
654.422	-11.15
654.455	-7.15
654.488	5.85
654.521	-25.15
654.553	-14.15
654.586	6.85
654.619	-10.15
654.652	-12.15
654.685	14.85
654.718	4.85
654.751	-3.15
654.783	-2.15
654.816	10.85
654.849	-4.15
654.882	-13.15
654.915	-16.15
654.948	-3.15
654.98	-10.15
655.013	-7.15
655.046	-8.15
655.079	-18.15
655.112	-3.15
655.144	-12.15
655.177	4.85
655.21	1.85
655.243	19.85
655.276	8.85
655.308	-1.15
655.341	-26.15
655.374	2.85
655.407	-16.15
655.44	-3.15
655.472	8.85
655.505	-1.15
655.538	-10.15
655.571	-1.15
655.603	-6.15
655.636	-3.15
655.669	-4.15
655.702	0.85
655.734	-4.15
655.767	-6.15
655.8	-16.15
655.833	-8.15
655.865	4.85
655.898	-8.15
655.931	-6.15
655.964	8.85
655.996	1.85
656.029	-6.15
656.062	-3.15
656.095	4.85
656.127	-11.15
656.16	-7.15
656.193	-11.15
656.225	-1.15
656.258	1.85
656.291	6.85
656.324	20.85
656.356	-2.15
656.389	5.85
656.422	2.85
656.454	-18.15
656.487	-5.15
656.52	7.85
656.552	-5.15
656.585	-7.15
656.618	1.85
656.65	14.85
656.683	11.85
656.716	-7.15
656.748	-11.15
656.781	-16.15
656.814	-10.15
656.846	-14.15
656.879	-19.15
656.912	-11.15
656.944	-24.15
656.977	-10.15
657.01	3.85
657.042	-4.15
657.075	5.85
657.108	-9.15
657.14	-0.15
657.173	9.85
657.205	14.85
657.238	4.85
657.271	1.85
657.303	-20.15
657.336	0.85
657.369	-6.15
657.401	-11.15
657.434	1.85
657.466	-2.15
657.499	2.85
657.532	12.85
657.564	15.85
657.597	4.85
657.629	4.85
657.662	-0.15
657.694	-1.15
657.727	-11.15
657.76	11.85
657.792	-12.15
657.825	-1.15
657.857	5.85
657.89	12.85
657.922	9.85
657.955	-16.15
657.987	-0.15
658.02	11.85
658.053	-4.15
658.085	5.85
658.118	-3.15
658.15	5.85
658.183	-1.15
658.215	-6.15
658.248	-0.15
658.28	-5.15
658.313	9.85
658.345	2.85
658.378	3.85
658.41	4.85
658.443	12.85
658.475	-8.15
658.508	-3.15
658.54	7.85
658.573	-13.15
658.605	-7.15
658.638	-2.15
658.67	-0.15
658.703	4.85
658.735	-15.15
658.768	7.85
658.8	-0.15
658.833	24.85
658.865	-5.15
658.898	2.85
658.93	-8.15
658.963	5.85
658.995	-8.15
659.028	20.85
659.06	5.85
659.092	0.85
659.125	-3.15
659.157	0.85
659.19	-2.15
659.222	-10.15
659.255	8.85
659.287	3.85
659.32	-2.15
659.352	-5.15
659.384	4.85
659.417	-3.15
659.449	-0.15
659.482	19.85
659.514	-15.15
659.546	-5.15
659.579	-23.15
659.611	-2.15
659.644	-12.15
659.676	-0.15
659.708	-13.15
659.741	-7.15
659.773	4.85
659.806	6.85
659.838	5.85
659.87	-2.15
659.903	-7.15
659.935	1.85
659.967	5.85
660	7.85
660.032	-24.15
660.065	11.85
660.097	19.85
660.129	-2.15
660.162	-5.15
660.194	20.85
660.226	4.85
660.259	-1.15
660.291	-1.15
660.323	1.85
660.356	-1.15
660.388	-4.15
660.42	8.85
660.453	7.85
660.485	9.85
660.517	21.85
660.55	8.85
660.582	3.85
660.614	6.85
660.647	-8.15
660.679	-10.15
660.711	8.85
660.743	-13.15
660.776	-4.15
660.808	4.85
660.84	4.85
660.873	5.85
660.905	12.85
660.937	-6.15
660.969	6.85
661.002	-2.15
661.034	19.85
661.066	-1.15
661.099	5.85
661.131	21.85
661.163	3.85
661.195	0.85
661.228	12.85
661.26	-10.15
661.292	0.85
661.324	-1.15
661.357	-6.15
661.389	4.85
661.421	3.85
661.453	-3.15
661.485	14.85
661.518	11.85
661.55	1.85
661.582	-10.15
661.614	-9.15
661.647	0.85
661.679	-9.15
661.711	-0.15
661.743	7.85
661.775	-6.15
661.808	7.85
661.84	-5.15
661.872	2.85
661.904	-1.15
661.936	-0.15
661.969	-3.15
662.001	0.85
662.033	-1.15
662.065	-12.15
662.097	14.85
662.129	4.85
662.162	-15.15
662.194	3.85
662.226	-8.15
662.258	-3.15
662.29	2.85
662.322	-11.15
662.355	-10.15
662.387	17.85
662.419	14.85
662.451	4.85
662.483	6.85
662.515	-6.15
662.547	-14.15
662.58	-3.15
662.612	-6.15
662.644	-7.15
662.676	5.85
662.708	8.85
662.74	-5.15
662.772	-9.15
662.804	6.85
662.836	9.85
662.869	12.85
662.901	4.85
662.933	9.85
662.965	0.85
662.997	0.85
663.029	4.85
663.061	0.85
663.093	10.85
663.125	2.85
663.157	5.85
663.189	-13.15
663.221	15.85
663.254	-6.15
663.286	18.85
663.318	-8.15
663.35	2.85
663.382	15.85
663.414	20.85
663.446	11.85
663.478	0.85
663.51	18.85
663.542	-4.15
663.574	-0.15
663.606	2.85
663.638	-11.15
663.67	1.85
663.702	-16.15
663.734	4.85
663.766	16.85
663.798	-0.15
663.83	18.85
663.862	3.85
663.894	8.85
663.926	9.85
663.958	1.85
663.99	-11.15
664.022	-11.15
664.054	5.85
664.086	-9.15
664.118	-7.15
664.15	-1.15
664.182	8.85
664.214	5.85
664.246	12.85
664.278	-7.15
664.31	24.85
664.342	12.85
664.374	-9.15
664.406	8.85
664.438	11.85
664.47	5.85
664.502	3.85
664.534	-3.15
664.566	9.85
664.598	18.85
664.63	5.85
664.662	16.85
664.693	4.85
664.725	-9.15
664.757	2.85
664.789	-6.15
664.821	16.85
664.853	15.85
664.885	8.85
664.917	3.85
664.949	6.85
664.981	12.85
665.013	-8.15
665.045	-11.15
665.076	0.85
665.108	2.85
665.14	-0.15
665.172	-5.15
665.204	-6.15
665.236	-21.15
665.268	3.85
665.3	-15.15
665.331	-15.15
665.363	6.85
665.395	-9.15
665.427	-10.15
665.459	13.85
665.491	15.85
665.523	3.85
665.555	-13.15
665.586	17.85
665.618	-5.15
665.65	-2.15
665.682	2.85
665.714	-2.15
665.746	-15.15
665.777	15.85
665.809	10.85
665.841	2.85
665.873	-0.15
665.905	-4.15
665.937	6.85
665.968	0.85
666	-2.15
666.032	-3.15
666.064	-11.15
666.096	18.85
666.127	3.85
666.159	10.85
666.191	2.85
666.223	1.85
666.255	-4.15
666.286	8.85
666.318	-10.15
666.35	14.85
666.382	12.85
666.413	-3.15
666.445	-11.15
666.477	-7.15
666.509	-16.15
666.54	-2.15
666.572	-7.15
666.604	1.85
666.636	10.85
666.667	9.85
666.699	3.85
666.731	-10.15
666.763	-12.15
666.794	3.85
666.826	5.85
666.858	0.85
666.89	-1.15
666.921	9.85
666.953	18.85
666.985	8.85
667.017	5.85
667.048	4.85
667.08	-16.15
667.112	-10.15
667.143	8.85
667.175	4.85
667.207	7.85
667.238	4.85
667.27	0.85
667.302	7.85
667.334	9.85
667.365	28.85
667.397	10.85
667.429	2.85
667.46	16.85
667.492	19.85
667.524	-11.15
667.555	-3.15
667.587	-23.15
667.619	1.85
667.65	-1.15
667.682	-2.15
667.714	21.85
667.745	3.85
667.777	4.85
667.808	-1.15
667.84	-0.15
667.872	0.85
667.903	12.85
667.935	9.85
667.967	-0.15
667.998	-10.15
668.03	-7.15
668.061	10.85
668.093	-3.15
668.125	8.85
668.156	17.85
668.188	7.85
668.22	-5.15
668.251	7.85
668.283	2.85
668.314	4.85
668.346	13.85
668.377	15.85
668.409	14.85
668.441	3.85
668.472	-0.15
668.504	13.85
668.535	5.85
668.567	29.85
668.599	6.85
668.63	-0.15
668.662	11.85
668.693	15.85
668.725	2.85
668.756	9.85
668.788	-0.15
668.819	-3.15
668.851	-1.15
668.882	11.85
668.914	2.85
668.946	-7.15
668.977	4.85
669.009	-1.15
669.04	-3.15
669.072	8.85
669.103	3.85
669.135	-5.15
669.166	4.85
669.198	1.85
669.229	5.85
669.261	2.85
669.292	5.85
669.324	13.85
669.355	6.85
669.387	-12.15
669.418	4.85
669.45	-7.15
669.481	-2.15
669.513	-0.15
669.544	7.85
669.576	-2.15
669.607	10.85
669.639	8.85
669.67	-10.15
669.701	4.85
669.733	-12.15
669.764	12.85
669.796	-1.15
669.827	-13.15
669.859	-9.15
669.89	2.85
669.922	2.85
669.953	-1.15
669.985	5.85
670.016	4.85
670.047	16.85
670.079	0.85
670.11	4.85
670.142	3.85
670.173	16.85
670.204	5.85
670.236	-2.15
670.267	-14.15
670.299	-12.15
670.33	-9.15
670.362	5.85
670.393	-30.15
670.424	-9.15
670.456	-7.15
670.487	-0.15
670.518	0.85
670.55	-7.15
670.581	3.85
670.613	17.85
670.644	-0.15
670.675	-18.15
670.707	-10.15
670.738	-9.15
670.769	-0.15
670.801	-10.15
670.832	10.85
670.864	-14.15
670.895	-4.15
670.926	-4.15
670.958	11.85
670.989	3.85
671.02	-6.15
671.052	-9.15
671.083	-8.15
671.114	-7.15
671.146	-5.15
671.177	-1.15
671.208	1.85
671.24	-17.15
671.271	-12.15
671.302	1.85
671.333	6.85
671.365	-16.15
671.396	1.85
671.427	-10.15
671.459	4.85
671.49	8.85
671.521	14.85
671.553	-5.15
671.584	7.85
671.615	-2.15
671.646	10.85
671.678	5.85
671.709	-15.15
671.74	-10.15
671.771	-19.15
671.803	-5.15
671.834	-3.15
671.865	-13.15
671.896	8.85
671.928	-1.15
671.959	-0.15
671.99	-15.15
672.021	-8.15
672.053	-7.15
672.084	15.85
672.115	14.85
672.146	-4.15
672.178	-1.15
672.209	1.85
672.24	10.85
672.271	21.85
672.303	-1.15
672.334	2.85
672.365	-10.15
672.396	6.85
672.427	15.85
672.459	14.85
672.49	24.85
672.521	-6.15
672.552	19.85
672.583	7.85
672.615	-2.15
672.646	4.85
672.677	-15.15
672.708	-4.15
672.739	-7.15
672.77	-1.15
672.802	7.85
672.833	-7.15
672.864	-8.15
672.895	-6.15
672.926	-12.15
672.957	-16.15
672.989	-2.15
673.02	11.85
673.051	-0.15
673.082	2.85
673.113	-13.15
673.144	8.85
673.175	-11.15
673.206	-28.15
673.238	4.85
673.269	-9.15
673.3	-8.15
673.331	8.85
673.362	13.85
673.393	-9.15
673.424	-3.15
673.455	8.85
673.487	7.85
673.518	-1.15
673.549	-10.15
673.58	7.85
673.611	2.85
673.642	-10.15
673.673	-22.15
673.704	3.85
673.735	-7.15
673.766	-2.15
673.797	-17.15
673.828	1.85
673.86	-10.15
673.891	-1.15
673.922	-16.15
673.953	-0.15
673.984	5.85
674.015	3.85
674.046	-2.15
674.077	-0.15
674.108	-6.15
674.139	0.85
674.17	-8.15
674.201	-5.15
674.232	8.85
674.263	-16.15
674.294	-8.15
674.325	0.85
674.356	14.85
674.387	18.85
674.418	5.85
674.449	-8.15
674.48	-14.15
674.511	-1.15
674.542	-2.15
674.573	1.85
674.604	24.85
674.635	-3.15
674.666	7.85
674.697	11.85
674.728	5.85
674.759	3.85
674.79	-8.15
674.821	-10.15
674.852	-17.15
674.883	-16.15
674.914	-10.15
674.945	1.85
674.976	3.85
675.007	-3.15
675.038	-23.15
675.069	-12.15
675.1	-5.15
675.131	12.85
675.162	1.85
675.193	-21.15
675.224	2.85
675.254	7.85
675.285	9.85
675.316	14.85
675.347	-1.15
675.378	-6.15
675.409	-12.15
675.44	8.85
675.471	3.85
675.502	-9.15
675.533	13.85
675.564	-12.15
675.595	-6.15
675.625	8.85
675.656	16.85
675.687	-0.15
675.718	-19.15
675.749	-9.15
675.78	-14.15
675.811	-0.15
675.842	7.85
675.873	-3.15
675.903	-11.15
675.934	-9.15
675.965	-13.15
675.996	0.85
676.027	11.85
676.058	-8.15
676.089	-5.15
676.119	15.85
676.15	-10.15
676.181	0.85
676.212	-11.15
676.243	13.85
676.274	-13.15
676.304	2.85
676.335	-26.15
676.366	-1.15
676.397	0.85
676.428	15.85
676.459	0.85
676.489	22.85
676.52	7.85
676.551	-0.15
676.582	-16.15
676.613	-29.15
676.643	-17.15
676.674	5.85
676.705	-8.15
676.736	-1.15
676.767	14.85
676.797	-1.15
676.828	-2.15
676.859	3.85
676.89	9.85
676.92	10.85
676.951	3.85
676.982	-7.15
677.013	-0.15
677.044	5.85
677.074	18.85
677.105	-17.15
677.136	4.85
677.167	-4.15
677.197	16.85
677.228	3.85
677.259	6.85
677.289	-6.15
677.32	-16.15
677.351	-14.15
677.382	-12.15
677.412	-15.15
677.443	-1.15
677.474	-1.15
677.505	-15.15
677.535	9.85
677.566	6.85
677.597	-4.15
677.627	6.85
677.658	-19.15
677.689	2.85
677.72	-6.15
677.75	-10.15
677.781	-4.15
677.812	4.85
677.842	8.85
677.873	0.85
677.904	5.85
677.934	-1.15
677.965	-5.15
677.996	-8.15
678.026	-17.15
678.057	4.85
678.088	-1.15
678.118	3.85
678.149	-16.15
678.18	-4.15
678.21	-2.15
678.241	-3.15
678.272	-9.15
678.302	12.85
678.333	-2.15
678.363	26.85
678.394	12.85
678.425	8.85
678.455	20.85
678.486	11.85
678.517	-0.15
678.547	-2.15
678.578	11.85
678.608	-30.15
678.639	17.85
678.67	3.85
678.7	0.85
678.731	-8.15
678.761	-5.15
678.792	-4.15
678.823	-4.15
678.853	1.85
678.884	-0.15
678.914	6.85
678.945	4.85
678.975	-3.15
679.006	8.85
679.037	-23.15
679.067	20.85
679.098	8.85
679.128	-6.15
679.159	-8.15
679.189	2.85
679.22	-9.15
679.25	11.85
679.281	9.85
679.312	4.85
679.342	8.85
679.373	23.85
679.403	5.85
679.434	3.85
679.464	-7.15
679.495	3.85
679.525	-3.15
679.556	-8.15
679.586	14.85
679.617	4.85
679.647	-0.15
679.678	-1.15
679.708	-5.15
679.739	-3.15
679.769	-3.15
679.8	4.85
679.83	1.85
679.861	2.85
679.891	-15.15
679.922	-9.15
679.952	-20.15
679.983	5.85
680.013	-0.15
680.044	-9.15
680.074	5.85
680.105	7.85
680.135	-0.15
680.165	4.85
680.196	10.85
680.226	-3.15
680.257	0.85
680.287	-8.15
680.318	-10.15
680.348	-12.15
680.379	4.85
680.409	-14.15
680.439	-10.15
680.47	2.85
680.5	6.85
680.531	-2.15
680.561	9.85
680.592	13.85
680.622	6.85
680.652	-0.15
680.683	9.85
680.713	-10.15
680.744	-8.15
680.774	-10.15
680.804	12.85
680.835	-4.15
680.865	0.85
680.896	20.85
680.926	8.85
680.956	-1.15
680.987	-0.15
681.017	-5.15
681.047	-3.15
681.078	-26.15
681.108	-2.15
681.139	13.85
681.169	10.85
681.199	1.85
681.23	5.85
681.26	-3.15
681.29	-8.15
681.321	-9.15
681.351	-7.15
681.381	-0.15
681.412	1.85
681.442	-3.15
681.472	-2.15
681.503	-1.15
681.533	5.85
681.563	-8.15
681.594	-12.15
681.624	-12.15
681.654	-3.15
681.685	-12.15
681.715	-6.15
681.745	-9.15
681.775	2.85
681.806	12.85
681.836	-11.15
681.866	-17.15
681.897	0.85
681.927	-8.15
681.957	-11.15
681.987	8.85
682.018	17.85
682.048	-4.15
682.078	0.85
682.109	14.85
682.139	0.85
682.169	8.85
682.199	6.85
682.23	-3.15
682.26	-3.15
682.29	-19.15
682.32	-17.15
682.351	6.85
682.381	1.85
682.411	-2.15
682.441	-7.15
682.472	-7.15
