Data from HighRes_mercury_15_13_11_07_2024_HR4C61891__40__15-14-27-186.txt Node

Date: Thu Nov 07 15:14:27 EST 2024
User: crc00042
Spectrometer: HR4C6189
Trigger mode: 4
Integration Time (sec): 1.000000E-1
Scans to average: 1
Electric dark correction enabled: true
Nonlinearity correction enabled: false
Boxcar width: 0
XAxis mode: Wavelengths
Number of Pixels in Spectrum: 3648
>>>>>Begin Spectral Data<<<<<
639.567	-57.31
639.602	-57.31
639.636	-57.31
639.67	-34.31
639.704	-10.31
639.738	1.69
639.773	0.69
639.807	-16.31
639.841	2.69
639.875	7.69
639.909	11.69
639.943	-15.31
639.978	4.69
640.012	3.69
640.046	10.69
640.08	1.69
640.114	-11.31
640.148	-2.31
640.182	-5.31
640.217	-0.31
640.251	22.69
640.285	5.69
640.319	-4.31
640.353	10.69
640.387	-2.31
640.421	-7.31
640.455	-10.31
640.49	-6.31
640.524	1.69
640.558	-3.31
640.592	0.69
640.626	17.69
640.66	6.69
640.694	-0.31
640.728	18.69
640.762	11.69
640.796	28.69
640.83	16.69
640.865	-9.31
640.899	8.69
640.933	-1.31
640.967	-0.31
641.001	8.69
641.035	19.69
641.069	4.69
641.103	-14.31
641.137	11.69
641.171	-7.31
641.205	19.69
641.239	17.69
641.273	7.69
641.307	17.69
641.341	17.69
641.375	-2.31
641.409	0.69
641.443	3.69
641.477	-0.31
641.511	11.69
641.545	14.69
641.579	6.69
641.614	29.69
641.648	27.69
641.682	6.69
641.716	15.69
641.75	20.69
641.784	30.69
641.818	5.69
641.852	2.69
641.886	5.69
641.919	22.69
641.953	9.69
641.987	-4.31
642.021	14.69
642.055	31.69
642.089	24.69
642.123	-10.31
642.157	3.69
642.191	3.69
642.225	-3.31
642.259	-11.31
642.293	40.69
642.327	12.69
642.361	-7.31
642.395	9.69
642.429	27.69
642.463	23.69
642.497	13.69
642.531	8.69
642.565	-0.31
642.599	10.69
642.633	-19.31
642.666	5.69
642.7	7.69
642.734	25.69
642.768	-13.31
642.802	4.69
642.836	6.69
642.87	2.69
642.904	19.69
642.938	5.69
642.972	8.69
643.005	14.69
643.039	12.69
643.073	21.69
643.107	14.69
643.141	-7.31
643.175	11.69
643.209	-3.31
643.243	0.69
643.276	12.69
643.31	0.69
643.344	-4.31
643.378	6.69
643.412	26.69
643.446	11.69
643.48	-7.31
643.513	-4.31
643.547	14.69
643.581	-6.31
643.615	4.69
643.649	16.69
643.683	1.69
643.716	-6.31
643.75	12.69
643.784	-11.31
643.818	14.69
643.852	-2.31
643.886	-4.31
643.919	10.69
643.953	-12.31
643.987	-9.31
644.021	22.69
644.055	7.69
644.088	-8.31
644.122	-5.31
644.156	-9.31
644.19	12.69
644.224	2.69
644.257	13.69
644.291	9.69
644.325	7.69
644.359	0.69
644.392	24.69
644.426	8.69
644.46	9.69
644.494	1.69
644.527	15.69
644.561	9.69
644.595	0.69
644.629	-22.31
644.662	3.69
644.696	12.69
644.73	-5.31
644.764	2.69
644.797	-9.31
644.831	7.69
644.865	25.69
644.899	19.69
644.932	28.69
644.966	11.69
645	-4.31
645.033	5.69
645.067	4.69
645.101	13.69
645.135	7.69
645.168	-19.31
645.202	-14.31
645.236	-0.31
645.269	5.69
645.303	3.69
645.337	-10.31
645.37	0.69
645.404	-7.31
645.438	-6.31
645.471	-2.31
645.505	0.69
645.539	-15.31
645.572	-10.31
645.606	-10.31
645.64	0.69
645.673	0.69
645.707	18.69
645.741	1.69
645.774	-3.31
645.808	-1.31
645.842	3.69
645.875	4.69
645.909	-5.31
645.943	3.69
645.976	3.69
646.01	12.69
646.043	18.69
646.077	13.69
646.111	17.69
646.144	8.69
646.178	1.69
646.212	-5.31
646.245	2.69
646.279	4.69
646.312	10.69
646.346	6.69
646.38	-12.31
646.413	-7.31
646.447	8.69
646.48	2.69
646.514	2.69
646.547	7.69
646.581	-1.31
646.615	5.69
646.648	-11.31
646.682	7.69
646.715	10.69
646.749	1.69
646.782	4.69
646.816	-16.31
646.85	13.69
646.883	-6.31
646.917	6.69
646.95	-0.31
646.984	3.69
647.017	-2.31
647.051	-5.31
647.084	-5.31
647.118	-5.31
647.151	9.69
647.185	6.69
647.218	-4.31
647.252	4.69
647.285	-0.31
647.319	2.69
647.353	4.69
647.386	7.69
647.42	5.69
647.453	7.69
647.487	2.69
647.52	-4.31
647.553	11.69
647.587	8.69
647.62	-0.31
647.654	12.69
647.687	7.69
647.721	2.69
647.754	3.69
647.788	14.69
647.821	20.69
647.855	19.69
647.888	13.69
647.922	14.69
647.955	-6.31
647.989	0.69
648.022	-6.31
648.055	18.69
648.089	5.69
648.122	25.69
648.156	3.69
648.189	7.69
648.223	9.69
648.256	28.69
648.29	12.69
648.323	3.69
648.356	14.69
648.39	6.69
648.423	5.69
648.457	-0.31
648.49	15.69
648.523	13.69
648.557	6.69
648.59	10.69
648.624	8.69
648.657	16.69
648.69	19.69
648.724	6.69
648.757	7.69
648.791	12.69
648.824	21.69
648.857	34.69
648.891	16.69
648.924	-4.31
648.957	6.69
648.991	4.69
649.024	27.69
649.057	12.69
649.091	5.69
649.124	13.69
649.158	6.69
649.191	27.69
649.224	6.69
649.258	7.69
649.291	9.69
649.324	-2.31
649.358	5.69
649.391	-1.31
649.424	-9.31
649.458	7.69
649.491	5.69
649.524	-10.31
649.557	-7.31
649.591	-13.31
649.624	23.69
649.657	-3.31
649.691	4.69
649.724	15.69
649.757	8.69
649.791	-2.31
649.824	11.69
649.857	19.69
649.89	-1.31
649.924	-8.31
649.957	-7.31
649.99	-1.31
650.023	-7.31
650.057	-20.31
650.09	18.69
650.123	1.69
650.157	18.69
650.19	6.69
650.223	-4.31
650.256	1.69
650.29	13.69
650.323	-6.31
650.356	-5.31
650.389	-15.31
650.423	-12.31
650.456	0.69
650.489	12.69
650.522	9.69
650.555	26.69
650.589	15.69
650.622	6.69
650.655	32.69
650.688	4.69
650.721	4.69
650.755	4.69
650.788	11.69
650.821	-11.31
650.854	5.69
650.887	-6.31
650.921	-12.31
650.954	4.69
650.987	0.69
651.02	-8.31
651.053	-0.31
651.087	-0.31
651.12	24.69
651.153	-4.31
651.186	3.69
651.219	-15.31
651.252	11.69
651.286	6.69
651.319	-17.31
651.352	8.69
651.385	-2.31
651.418	9.69
651.451	20.69
651.484	12.69
651.518	-8.31
651.551	14.69
651.584	3.69
651.617	22.69
651.65	3.69
651.683	17.69
651.716	-2.31
651.749	-0.31
651.783	-16.31
651.816	0.69
651.849	8.69
651.882	4.69
651.915	0.69
651.948	4.69
651.981	1.69
652.014	-12.31
652.047	-6.31
652.08	-0.31
652.114	-0.31
652.147	6.69
652.18	8.69
652.213	27.69
652.246	1.69
652.279	-8.31
652.312	14.69
652.345	0.69
652.378	5.69
652.411	19.69
652.444	17.69
652.477	9.69
652.51	2.69
652.543	-14.31
652.576	-9.31
652.609	-1.31
652.642	14.69
652.675	9.69
652.709	2.69
652.742	20.69
652.775	20.69
652.808	16.69
652.841	11.69
652.874	-5.31
652.907	-4.31
652.94	-6.31
652.973	3.69
653.006	-1.31
653.039	-9.31
653.072	-8.31
653.105	-8.31
653.138	-4.31
653.171	-1.31
653.204	-4.31
653.237	-6.31
653.27	-14.31
653.303	0.69
653.336	3.69
653.368	-0.31
653.401	8.69
653.434	-6.31
653.467	-4.31
653.5	-6.31
653.533	-6.31
653.566	11.69
653.599	7.69
653.632	-4.31
653.665	6.69
653.698	-2.31
653.731	-16.31
653.764	-5.31
653.797	-6.31
653.83	5.69
653.863	-0.31
653.896	13.69
653.929	1.69
653.961	16.69
653.994	-5.31
654.027	4.69
654.06	-4.31
654.093	8.69
654.126	5.69
654.159	-3.31
654.192	-0.31
654.225	1.69
654.258	3.69
654.29	0.69
654.323	5.69
654.356	-9.31
654.389	10.69
654.422	-2.31
654.455	19.69
654.488	17.69
654.521	-8.31
654.553	1.69
654.586	19.69
654.619	-7.31
654.652	9.69
654.685	1.69
654.718	0.69
654.751	14.69
654.783	3.69
654.816	9.69
654.849	7.69
654.882	-6.31
654.915	-16.31
654.948	11.69
654.98	-0.31
655.013	-12.31
655.046	-4.31
655.079	-12.31
655.112	10.69
655.144	-12.31
655.177	5.69
655.21	5.69
655.243	9.69
655.276	19.69
655.308	2.69
655.341	-13.31
655.374	0.69
655.407	0.69
655.44	6.69
655.472	21.69
655.505	-3.31
655.538	-1.31
655.571	27.69
655.603	-1.31
655.636	-3.31
655.669	10.69
655.702	20.69
655.734	-1.31
655.767	6.69
655.8	4.69
655.833	21.69
655.865	6.69
655.898	-7.31
655.931	4.69
655.964	3.69
655.996	-12.31
656.029	4.69
656.062	2.69
656.095	0.69
656.127	-3.31
656.16	4.69
656.193	-6.31
656.225	8.69
656.258	7.69
656.291	-1.31
656.324	5.69
656.356	15.69
656.389	1.69
656.422	2.69
656.454	-7.31
656.487	-3.31
656.52	9.69
656.552	0.69
656.585	-2.31
656.618	8.69
656.65	7.69
656.683	3.69
656.716	10.69
656.748	3.69
656.781	-9.31
656.814	-7.31
656.846	14.69
656.879	-16.31
656.912	2.69
656.944	-16.31
656.977	-3.31
657.01	-5.31
657.042	3.69
657.075	15.69
657.108	-3.31
657.14	11.69
657.173	16.69
657.205	38.69
657.238	10.69
657.271	-6.31
657.303	-7.31
657.336	-10.31
657.369	-20.31
657.401	-16.31
657.434	8.69
657.466	-1.31
657.499	-6.31
657.532	-3.31
657.564	8.69
657.597	6.69
657.629	8.69
657.662	-10.31
657.694	3.69
657.727	0.69
657.76	4.69
657.792	-10.31
657.825	-11.31
657.857	0.69
657.89	-22.31
657.922	6.69
657.955	-19.31
657.987	4.69
658.02	18.69
658.053	22.69
658.085	1.69
658.118	9.69
658.15	17.69
658.183	22.69
658.215	4.69
658.248	5.69
658.28	-5.31
658.313	31.69
658.345	10.69
658.378	10.69
658.41	7.69
658.443	4.69
658.475	4.69
658.508	-1.31
658.54	-6.31
658.573	-17.31
658.605	-10.31
658.638	-8.31
658.67	6.69
658.703	3.69
658.735	-12.31
658.768	-1.31
658.8	-22.31
658.833	6.69
658.865	-18.31
658.898	2.69
658.93	-2.31
658.963	7.69
658.995	-5.31
659.028	3.69
659.06	-1.31
659.092	11.69
659.125	-6.31
659.157	-2.31
659.19	-3.31
659.222	-11.31
659.255	4.69
659.287	-4.31
659.32	-7.31
659.352	-0.31
659.384	7.69
659.417	-3.31
659.449	5.69
659.482	2.69
659.514	-1.31
659.546	7.69
659.579	-2.31
659.611	15.69
659.644	-3.31
659.676	-6.31
659.708	-6.31
659.741	-3.31
659.773	13.69
659.806	-2.31
659.838	10.69
659.87	5.69
659.903	-8.31
659.935	7.69
659.967	5.69
660	-0.31
660.032	-24.31
660.065	12.69
660.097	-0.31
660.129	4.69
660.162	-9.31
660.194	5.69
660.226	3.69
660.259	10.69
660.291	-7.31
660.323	-2.31
660.356	6.69
660.388	-4.31
660.42	-12.31
660.453	2.69
660.485	1.69
660.517	7.69
660.55	4.69
660.582	-9.31
660.614	7.69
660.647	-4.31
660.679	-16.31
660.711	4.69
660.743	-7.31
660.776	-0.31
660.808	-16.31
660.84	-6.31
660.873	-0.31
660.905	-4.31
660.937	-14.31
660.969	2.69
661.002	-1.31
661.034	16.69
661.066	4.69
661.099	-1.31
661.131	6.69
661.163	-9.31
661.195	3.69
661.228	6.69
661.26	-3.31
661.292	2.69
661.324	22.69
661.357	14.69
661.389	5.69
661.421	6.69
661.453	-3.31
661.485	9.69
661.518	6.69
661.55	-5.31
661.582	-4.31
661.614	-0.31
661.647	6.69
661.679	8.69
661.711	0.69
661.743	2.69
661.775	10.69
661.808	16.69
661.84	-13.31
661.872	17.69
661.904	2.69
661.936	-9.31
661.969	-16.31
662.001	-10.31
662.033	2.69
662.065	10.69
662.097	14.69
662.129	8.69
662.162	-18.31
662.194	0.69
662.226	13.69
662.258	6.69
662.29	7.69
662.322	-14.31
662.355	4.69
662.387	31.69
662.419	4.69
662.451	11.69
662.483	11.69
662.515	12.69
662.547	-0.31
662.58	13.69
662.612	-7.31
662.644	-15.31
662.676	-0.31
662.708	21.69
662.74	-3.31
662.772	-0.31
662.804	5.69
662.836	9.69
662.869	9.69
662.901	0.69
662.933	0.69
662.965	2.69
662.997	9.69
663.029	-4.31
663.061	25.69
663.093	8.69
663.125	11.69
663.157	23.69
663.189	7.69
663.221	-1.31
663.254	5.69
663.286	18.69
663.318	-10.31
663.35	-10.31
663.382	3.69
663.414	-4.31
663.446	5.69
663.478	-17.31
663.51	25.69
663.542	-5.31
663.574	-2.31
663.606	10.69
663.638	-6.31
663.67	-11.31
663.702	-3.31
663.734	10.69
663.766	21.69
663.798	-13.31
663.83	-9.31
663.862	1.69
663.894	-10.31
663.926	-2.31
663.958	4.69
663.99	-4.31
664.022	-7.31
664.054	16.69
664.086	-6.31
664.118	-14.31
664.15	-8.31
664.182	-7.31
664.214	-4.31
664.246	16.69
664.278	11.69
664.31	27.69
664.342	-3.31
664.374	-5.31
664.406	2.69
664.438	17.69
664.47	2.69
664.502	-2.31
664.534	-3.31
664.566	-17.31
664.598	15.69
664.63	-5.31
664.662	4.69
664.693	5.69
664.725	3.69
664.757	6.69
664.789	-0.31
664.821	-10.31
664.853	6.69
664.885	1.69
664.917	-9.31
664.949	12.69
664.981	2.69
665.013	-8.31
665.045	8.69
665.076	2.69
665.108	-6.31
665.14	1.69
665.172	12.69
665.204	4.69
665.236	4.69
665.268	20.69
665.3	14.69
665.331	-9.31
665.363	-7.31
665.395	-3.31
665.427	-4.31
665.459	-2.31
665.491	5.69
665.523	2.69
665.555	14.69
665.586	4.69
665.618	9.69
665.65	-4.31
665.682	18.69
665.714	-5.31
665.746	-12.31
665.777	-3.31
665.809	-7.31
665.841	-8.31
665.873	4.69
665.905	10.69
665.937	5.69
665.968	9.69
666	-0.31
666.032	0.69
666.064	-4.31
666.096	-3.31
666.127	13.69
666.159	4.69
666.191	-0.31
666.223	-3.31
666.255	-1.31
666.286	8.69
666.318	7.69
666.35	13.69
666.382	3.69
666.413	-3.31
666.445	0.69
666.477	5.69
666.509	6.69
666.54	9.69
666.572	16.69
666.604	6.69
666.636	10.69
666.667	25.69
666.699	19.69
666.731	20.69
666.763	-4.31
666.794	9.69
666.826	-3.31
666.858	-18.31
666.89	10.69
666.921	6.69
666.953	8.69
666.985	11.69
667.017	22.69
667.048	19.69
667.08	-1.31
667.112	0.69
667.143	-24.31
667.175	5.69
667.207	9.69
667.238	15.69
667.27	4.69
667.302	2.69
667.334	-8.31
667.365	0.69
667.397	-4.31
667.429	7.69
667.46	20.69
667.492	27.69
667.524	14.69
667.555	3.69
667.587	22.69
667.619	3.69
667.65	-11.31
667.682	7.69
667.714	19.69
667.745	-4.31
667.777	-0.31
667.808	3.69
667.84	6.69
667.872	6.69
667.903	16.69
667.935	-4.31
667.967	4.69
667.998	-0.31
668.03	5.69
668.061	4.69
668.093	-1.31
668.125	-1.31
668.156	1.69
668.188	8.69
668.22	-0.31
668.251	17.69
668.283	19.69
668.314	15.69
668.346	6.69
668.377	26.69
668.409	22.69
668.441	28.69
668.472	8.69
668.504	17.69
668.535	21.69
668.567	8.69
668.599	10.69
668.63	-0.31
668.662	19.69
668.693	17.69
668.725	3.69
668.756	11.69
668.788	0.69
668.819	3.69
668.851	-6.31
668.882	-15.31
668.914	-13.31
668.946	-8.31
668.977	8.69
669.009	-7.31
669.04	-9.31
669.072	-4.31
669.103	-3.31
669.135	0.69
669.166	7.69
669.198	6.69
669.229	11.69
669.261	7.69
669.292	18.69
669.324	-0.31
669.355	7.69
669.387	-0.31
669.418	-0.31
669.45	-5.31
669.481	2.69
669.513	2.69
669.544	13.69
669.576	4.69
669.607	26.69
669.639	20.69
669.67	-0.31
669.701	3.69
669.733	-6.31
669.764	-9.31
669.796	2.69
669.827	-5.31
669.859	8.69
669.89	7.69
669.922	5.69
669.953	-1.31
669.985	22.69
670.016	21.69
670.047	8.69
670.079	0.69
670.11	-5.31
670.142	2.69
670.173	-0.31
670.204	-8.31
670.236	11.69
670.267	-0.31
670.299	-7.31
670.33	-5.31
670.362	19.69
670.393	-15.31
670.424	3.69
670.456	-4.31
670.487	-3.31
670.518	3.69
670.55	7.69
670.581	11.69
670.613	6.69
670.644	2.69
670.675	-22.31
670.707	-10.31
670.738	9.69
670.769	10.69
670.801	-8.31
670.832	10.69
670.864	-6.31
670.895	5.69
670.926	12.69
670.958	7.69
670.989	-4.31
671.02	-11.31
671.052	1.69
671.083	5.69
671.114	1.69
671.146	7.69
671.177	13.69
671.208	-8.31
671.24	-13.31
671.271	4.69
671.302	17.69
671.333	-9.31
671.365	-7.31
671.396	-0.31
671.427	13.69
671.459	11.69
671.49	14.69
671.521	-7.31
671.553	1.69
671.584	4.69
671.615	9.69
671.646	-1.31
671.678	-3.31
671.709	-9.31
671.74	-2.31
671.771	-3.31
671.803	6.69
671.834	14.69
671.865	-2.31
671.896	-9.31
671.928	-7.31
671.959	-10.31
671.99	-0.31
672.021	5.69
672.053	1.69
672.084	7.69
672.115	3.69
672.146	-1.31
672.178	-15.31
672.209	-0.31
672.24	19.69
672.271	18.69
672.303	0.69
672.334	1.69
672.365	-8.31
672.396	-1.31
672.427	3.69
672.459	-1.31
672.49	19.69
672.521	-2.31
672.552	6.69
672.583	10.69
672.615	11.69
672.646	18.69
672.677	-10.31
672.708	-3.31
672.739	3.69
672.77	20.69
672.802	7.69
672.833	-7.31
672.864	0.69
672.895	-0.31
672.926	0.69
672.957	-10.31
672.989	-11.31
673.02	-3.31
673.051	4.69
673.082	8.69
673.113	4.69
673.144	6.69
673.175	8.69
673.206	0.69
673.238	-3.31
673.269	9.69
673.3	7.69
673.331	10.69
673.362	4.69
673.393	-4.31
673.424	11.69
673.455	22.69
673.487	13.69
673.518	6.69
673.549	-5.31
673.58	-2.31
673.611	9.69
673.642	2.69
673.673	-16.31
673.704	3.69
673.735	2.69
673.766	-13.31
673.797	2.69
673.828	0.69
673.86	-11.31
673.891	-10.31
673.922	-6.31
673.953	-6.31
673.984	2.69
674.015	9.69
674.046	8.69
674.077	-4.31
674.108	-9.31
674.139	-1.31
674.17	-10.31
674.201	-5.31
674.232	-8.31
674.263	5.69
674.294	12.69
674.325	-14.31
674.356	10.69
674.387	9.69
674.418	1.69
674.449	-4.31
674.48	-1.31
674.511	-5.31
674.542	10.69
674.573	10.69
674.604	9.69
674.635	3.69
674.666	19.69
674.697	14.69
674.728	-10.31
674.759	-0.31
674.79	-12.31
674.821	-24.31
674.852	-3.31
674.883	-23.31
674.914	-0.31
674.945	-6.31
674.976	-10.31
675.007	-9.31
675.038	-5.31
675.069	-1.31
675.1	-6.31
675.131	-4.31
675.162	-19.31
675.193	2.69
675.224	-11.31
675.254	5.69
675.285	2.69
675.316	12.69
675.347	-5.31
675.378	-13.31
675.409	-3.31
675.44	6.69
675.471	9.69
675.502	6.69
675.533	0.69
675.564	8.69
675.595	-3.31
675.625	19.69
675.656	15.69
675.687	8.69
675.718	-11.31
675.749	18.69
675.78	3.69
675.811	3.69
675.842	-3.31
675.873	3.69
675.903	2.69
675.934	1.69
675.965	-1.31
675.996	-6.31
676.027	5.69
676.058	-9.31
676.089	-13.31
676.119	13.69
676.15	9.69
676.181	7.69
676.212	-13.31
676.243	16.69
676.274	-3.31
676.304	20.69
676.335	0.69
676.366	9.69
676.397	-6.31
676.428	0.69
676.459	-0.31
676.489	17.69
676.52	4.69
676.551	-0.31
676.582	4.69
676.613	-2.31
676.643	-8.31
676.674	10.69
676.705	-10.31
676.736	9.69
676.767	24.69
676.797	13.69
676.828	12.69
676.859	15.69
676.89	-8.31
676.92	20.69
676.951	4.69
676.982	-0.31
677.013	5.69
677.044	17.69
677.074	36.69
677.105	-16.31
677.136	0.69
677.167	-3.31
677.197	22.69
677.228	10.69
677.259	-18.31
677.289	3.69
677.32	-22.31
677.351	-7.31
677.382	-4.31
677.412	-3.31
677.443	2.69
677.474	19.69
677.505	-25.31
677.535	-6.31
677.566	0.69
677.597	-8.31
677.627	-12.31
677.658	6.69
677.689	3.69
677.72	9.69
677.75	-7.31
677.781	-2.31
677.812	0.69
677.842	2.69
677.873	7.69
677.904	-5.31
677.934	0.69
677.965	-4.31
677.996	-18.31
678.026	7.69
678.057	-12.31
678.088	-14.31
678.118	-1.31
678.149	-4.31
678.18	-0.31
678.21	1.69
678.241	6.69
678.272	0.69
678.302	-0.31
678.333	5.69
678.363	9.69
678.394	3.69
678.425	-10.31
678.455	-7.31
678.486	19.69
678.517	3.69
678.547	2.69
678.578	-7.31
678.608	-14.31
678.639	2.69
678.67	2.69
678.7	-12.31
678.731	2.69
678.761	-4.31
678.792	3.69
678.823	0.69
678.853	4.69
678.884	-3.31
678.914	0.69
678.945	9.69
678.975	-5.31
679.006	2.69
679.037	-5.31
679.067	20.69
679.098	8.69
679.128	-10.31
679.159	-8.31
679.189	19.69
679.22	-5.31
679.25	22.69
679.281	1.69
679.312	5.69
679.342	1.69
679.373	27.69
679.403	6.69
679.434	21.69
679.464	-9.31
679.495	8.69
679.525	0.69
679.556	-8.31
679.586	1.69
679.617	15.69
679.647	3.69
679.678	-8.31
679.708	-5.31
679.739	-11.31
679.769	6.69
679.8	-20.31
679.83	-12.31
679.861	-0.31
679.891	-14.31
679.922	-16.31
679.952	0.69
679.983	6.69
680.013	-1.31
680.044	-19.31
680.074	17.69
680.105	6.69
680.135	-7.31
680.165	6.69
680.196	15.69
680.226	-0.31
680.257	9.69
680.287	7.69
680.318	-6.31
680.348	-16.31
680.379	7.69
680.409	2.69
680.439	-3.31
680.47	7.69
680.5	7.69
680.531	-8.31
680.561	10.69
680.592	9.69
680.622	12.69
680.652	-4.31
680.683	12.69
680.713	11.69
680.744	-4.31
680.774	-6.31
680.804	11.69
680.835	0.69
680.865	-11.31
680.896	2.69
680.926	16.69
680.956	-1.31
680.987	7.69
681.017	-10.31
681.047	-12.31
681.078	6.69
681.108	-6.31
681.139	-2.31
681.169	-0.31
681.199	5.69
681.23	-4.31
681.26	10.69
681.29	7.69
681.321	-11.31
681.351	5.69
681.381	7.69
681.412	4.69
681.442	14.69
681.472	15.69
681.503	10.69
681.533	-10.31
681.563	-1.31
681.594	-1.31
681.624	6.69
681.654	-1.31
681.685	0.69
681.715	-5.31
681.745	3.69
681.775	3.69
681.806	4.69
681.836	8.69
681.866	-18.31
681.897	11.69
681.927	21.69
681.957	-25.31
681.987	6.69
682.018	-3.31
682.048	9.69
682.078	-0.31
682.109	20.69
682.139	32.69
682.169	3.69
682.199	5.69
682.23	-2.31
682.26	0.69
682.29	-3.31
682.32	-9.31
682.351	-16.31
682.381	4.69
682.411	-0.31
682.441	-1.31
682.472	-6.31
682.502	2.69
682.532	6.69
682.562	-8.31
682.592	1.69
682.623	2.69
682.653	-0.31
682.683	2.69
682.713	3.69
