Data from HighRes_mercury_15_13_11_07_2024_HR4C61891__62__15-14-29-386.txt Node

Date: Thu Nov 07 15:14:29 EST 2024
User: crc00042
Spectrometer: HR4C6189
Trigger mode: 4
Integration Time (sec): 1.000000E-1
Scans to average: 1
Electric dark correction enabled: true
Nonlinearity correction enabled: false
Boxcar width: 0
XAxis mode: Wavelengths
Number of Pixels in Spectrum: 3648
>>>>>Begin Spectral Data<<<<<
639.567	-56.15
639.602	-56.15
639.636	-56.15
639.67	-47.15
639.704	-17.15
639.738	-13.15
639.773	16.85
639.807	-3.15
639.841	-5.15
639.875	0.85
639.909	-0.15
639.943	-15.15
639.978	-1.15
640.012	5.85
640.046	7.85
640.08	3.85
640.114	7.85
640.148	-5.15
640.182	-2.15
640.217	6.85
640.251	15.85
640.285	14.85
640.319	5.85
640.353	4.85
640.387	-2.15
640.421	0.85
640.455	-3.15
640.49	-10.15
640.524	-2.15
640.558	-3.15
640.592	-11.15
640.626	-4.15
640.66	9.85
640.694	5.85
640.728	7.85
640.762	2.85
640.796	26.85
640.83	10.85
640.865	-6.15
640.899	12.85
640.933	-14.15
640.967	-4.15
641.001	5.85
641.035	5.85
641.069	6.85
641.103	-12.15
641.137	-7.15
641.171	-15.15
641.205	-6.15
641.239	-11.15
641.273	3.85
641.307	0.85
641.341	-12.15
641.375	-10.15
641.409	-11.15
641.443	8.85
641.477	4.85
641.511	3.85
641.545	4.85
641.579	-1.15
641.614	21.85
641.648	4.85
641.682	-10.15
641.716	27.85
641.75	12.85
641.784	2.85
641.818	-5.15
641.852	2.85
641.886	8.85
641.919	23.85
641.953	7.85
641.987	-16.15
642.021	-17.15
642.055	4.85
642.089	-12.15
642.123	-18.15
642.157	2.85
642.191	-7.15
642.225	13.85
642.259	6.85
642.293	17.85
642.327	9.85
642.361	-10.15
642.395	16.85
642.429	10.85
642.463	14.85
642.497	17.85
642.531	-7.15
642.565	-1.15
642.599	-1.15
642.633	-12.15
642.666	10.85
642.7	2.85
642.734	9.85
642.768	-7.15
642.802	-0.15
642.836	2.85
642.87	4.85
642.904	10.85
642.938	7.85
642.972	7.85
643.005	9.85
643.039	27.85
643.073	13.85
643.107	10.85
643.141	14.85
643.175	12.85
643.209	14.85
643.243	1.85
643.276	4.85
643.31	1.85
643.344	7.85
643.378	11.85
643.412	12.85
643.446	19.85
643.48	2.85
643.513	9.85
643.547	3.85
643.581	-7.15
643.615	6.85
643.649	1.85
643.683	-20.15
643.716	2.85
643.75	-0.15
643.784	-4.15
643.818	10.85
643.852	-5.15
643.886	3.85
643.919	3.85
643.953	1.85
643.987	5.85
644.021	15.85
644.055	9.85
644.088	12.85
644.122	-3.15
644.156	-8.15
644.19	13.85
644.224	6.85
644.257	20.85
644.291	11.85
644.325	3.85
644.359	-8.15
644.392	20.85
644.426	17.85
644.46	15.85
644.494	2.85
644.527	-17.15
644.561	13.85
644.595	11.85
644.629	4.85
644.662	-10.15
644.696	10.85
644.73	12.85
644.764	13.85
644.797	-1.15
644.831	-4.15
644.865	2.85
644.899	-4.15
644.932	6.85
644.966	-5.15
645	14.85
645.033	19.85
645.067	2.85
645.101	-7.15
645.135	-3.15
645.168	-0.15
645.202	-1.15
645.236	4.85
645.269	29.85
645.303	3.85
645.337	-10.15
645.37	-9.15
645.404	-6.15
645.438	2.85
645.471	-15.15
645.505	17.85
645.539	7.85
645.572	-6.15
645.606	-6.15
645.64	3.85
645.673	-6.15
645.707	16.85
645.741	4.85
645.774	-19.15
645.808	4.85
645.842	-2.15
645.875	7.85
645.909	9.85
645.943	3.85
645.976	-5.15
646.01	4.85
646.043	10.85
646.077	10.85
646.111	-0.15
646.144	16.85
646.178	14.85
646.212	0.85
646.245	-9.15
646.279	8.85
646.312	9.85
646.346	8.85
646.38	4.85
646.413	19.85
646.447	9.85
646.48	6.85
646.514	10.85
646.547	-22.15
646.581	-14.15
646.615	-0.15
646.648	-12.15
646.682	-0.15
646.715	-9.15
646.749	26.85
646.782	5.85
646.816	-8.15
646.85	-4.15
646.883	3.85
646.917	16.85
646.95	7.85
646.984	7.85
647.017	3.85
647.051	9.85
647.084	0.85
647.118	-1.15
647.151	4.85
647.185	6.85
647.218	-4.15
647.252	23.85
647.285	-4.15
647.319	-18.15
647.353	-0.15
647.386	19.85
647.42	1.85
647.453	7.85
647.487	-10.15
647.52	4.85
647.553	9.85
647.587	4.85
647.62	-2.15
647.654	9.85
647.687	5.85
647.721	11.85
647.754	-3.15
647.788	-7.15
647.821	-5.15
647.855	11.85
647.888	22.85
647.922	24.85
647.955	7.85
647.989	-11.15
648.022	14.85
648.055	9.85
648.089	7.85
648.122	11.85
648.156	0.85
648.189	12.85
648.223	10.85
648.256	0.85
648.29	12.85
648.323	-1.15
648.356	13.85
648.39	0.85
648.423	5.85
648.457	-6.15
648.49	18.85
648.523	-2.15
648.557	10.85
648.59	10.85
648.624	-0.15
648.657	7.85
648.69	25.85
648.724	24.85
648.757	4.85
648.791	20.85
648.824	16.85
648.857	17.85
648.891	1.85
648.924	13.85
648.957	14.85
648.991	-6.15
649.024	11.85
649.057	2.85
649.091	-15.15
649.124	-4.15
649.158	-1.15
649.191	22.85
649.224	7.85
649.258	-2.15
649.291	20.85
649.324	10.85
649.358	5.85
649.391	-1.15
649.424	-0.15
649.458	5.85
649.491	10.85
649.524	4.85
649.557	-6.15
649.591	-15.15
649.624	27.85
649.657	14.85
649.691	9.85
649.724	10.85
649.757	13.85
649.791	18.85
649.824	21.85
649.857	10.85
649.89	-6.15
649.924	-20.15
649.957	-2.15
649.99	-13.15
650.023	-10.15
650.057	2.85
650.09	11.85
650.123	-9.15
650.157	10.85
650.19	25.85
650.223	-1.15
650.256	-6.15
650.29	2.85
650.323	11.85
650.356	12.85
650.389	9.85
650.423	-12.15
650.456	11.85
650.489	5.85
650.522	1.85
650.555	8.85
650.589	6.85
650.622	-4.15
650.655	24.85
650.688	3.85
650.721	15.85
650.755	3.85
650.788	10.85
650.821	-3.15
650.854	-5.15
650.887	20.85
650.921	10.85
650.954	-3.15
650.987	0.85
651.02	-21.15
651.053	-1.15
651.087	-10.15
651.12	10.85
651.153	12.85
651.186	-1.15
651.219	-15.15
651.252	2.85
651.286	-2.15
651.319	3.85
651.352	4.85
651.385	4.85
651.418	1.85
651.451	12.85
651.484	5.85
651.518	1.85
651.551	28.85
651.584	5.85
651.617	17.85
651.65	3.85
651.683	20.85
651.716	2.85
651.749	-15.15
651.783	-11.15
651.816	-3.15
651.849	18.85
651.882	1.85
651.915	4.85
651.948	4.85
651.981	-15.15
652.014	-11.15
652.047	-19.15
652.08	-3.15
652.114	-8.15
652.147	-7.15
652.18	-4.15
652.213	18.85
652.246	7.85
652.279	2.85
652.312	20.85
652.345	1.85
652.378	14.85
652.411	14.85
652.444	11.85
652.477	4.85
652.51	-12.15
652.543	-14.15
652.576	4.85
652.609	-7.15
652.642	-11.15
652.675	8.85
652.709	-0.15
652.742	0.85
652.775	7.85
652.808	15.85
652.841	12.85
652.874	-7.15
652.907	8.85
652.94	11.85
652.973	-2.15
653.006	0.85
653.039	4.85
653.072	7.85
653.105	-13.15
653.138	-7.15
653.171	-5.15
653.204	0.85
653.237	3.85
653.27	-11.15
653.303	6.85
653.336	2.85
653.368	3.85
653.401	18.85
653.434	0.85
653.467	-4.15
653.5	-11.15
653.533	-10.15
653.566	0.85
653.599	-1.15
653.632	16.85
653.665	-4.15
653.698	-3.15
653.731	-8.15
653.764	2.85
653.797	3.85
653.83	5.85
653.863	18.85
653.896	-11.15
653.929	-1.15
653.961	4.85
653.994	-7.15
654.027	2.85
654.06	-1.15
654.093	-0.15
654.126	18.85
654.159	-10.15
654.192	10.85
654.225	3.85
654.258	-7.15
654.29	-12.15
654.323	1.85
654.356	-0.15
654.389	5.85
654.422	-3.15
654.455	-7.15
654.488	3.85
654.521	-8.15
654.553	-5.15
654.586	26.85
654.619	0.85
654.652	-3.15
654.685	-8.15
654.718	5.85
654.751	4.85
654.783	9.85
654.816	24.85
654.849	0.85
654.882	9.85
654.915	4.85
654.948	-7.15
654.98	-5.15
655.013	-7.15
655.046	-5.15
655.079	-1.15
655.112	5.85
655.144	-18.15
655.177	-5.15
655.21	3.85
655.243	5.85
655.276	8.85
655.308	1.85
655.341	2.85
655.374	7.85
655.407	11.85
655.44	-14.15
655.472	8.85
655.505	-4.15
655.538	-2.15
655.571	9.85
655.603	12.85
655.636	-4.15
655.669	11.85
655.702	3.85
655.734	-7.15
655.767	-28.15
655.8	-5.15
655.833	6.85
655.865	11.85
655.898	-5.15
655.931	-6.15
655.964	2.85
655.996	-7.15
656.029	3.85
656.062	-1.15
656.095	0.85
656.127	-6.15
656.16	-8.15
656.193	3.85
656.225	1.85
656.258	10.85
656.291	4.85
656.324	10.85
656.356	12.85
656.389	8.85
656.422	13.85
656.454	-10.15
656.487	2.85
656.52	1.85
656.552	0.85
656.585	10.85
656.618	10.85
656.65	5.85
656.683	-4.15
656.716	-3.15
656.748	-3.15
656.781	-4.15
656.814	-7.15
656.846	6.85
656.879	12.85
656.912	12.85
656.944	-7.15
656.977	-2.15
657.01	-9.15
657.042	10.85
657.075	12.85
657.108	-0.15
657.14	2.85
657.173	18.85
657.205	16.85
657.238	13.85
657.271	2.85
657.303	-18.15
657.336	5.85
657.369	-8.15
657.401	4.85
657.434	-5.15
657.466	0.85
657.499	-12.15
657.532	-5.15
657.564	5.85
657.597	3.85
657.629	18.85
657.662	-1.15
657.694	-4.15
657.727	-13.15
657.76	3.85
657.792	3.85
657.825	0.85
657.857	-1.15
657.89	0.85
657.922	19.85
657.955	-10.15
657.987	0.85
658.02	4.85
658.053	-0.15
658.085	-5.15
658.118	2.85
658.15	13.85
658.183	12.85
658.215	-5.15
658.248	-8.15
658.28	-3.15
658.313	15.85
658.345	32.85
658.378	3.85
658.41	8.85
658.443	13.85
658.475	3.85
658.508	-3.15
658.54	-5.15
658.573	-19.15
658.605	12.85
658.638	-6.15
658.67	1.85
658.703	5.85
658.735	-36.15
658.768	0.85
658.8	-14.15
658.833	26.85
658.865	-2.15
658.898	2.85
658.93	3.85
658.963	-13.15
658.995	-23.15
659.028	4.85
659.06	9.85
659.092	-4.15
659.125	-9.15
659.157	12.85
659.19	-6.15
659.222	-1.15
659.255	-7.15
659.287	-0.15
659.32	2.85
659.352	0.85
659.384	8.85
659.417	-1.15
659.449	15.85
659.482	11.85
659.514	-1.15
659.546	4.85
659.579	0.85
659.611	0.85
659.644	3.85
659.676	-7.15
659.708	-21.15
659.741	2.85
659.773	2.85
659.806	0.85
659.838	11.85
659.87	16.85
659.903	-13.15
659.935	0.85
659.967	0.85
660	-1.15
660.032	-4.15
660.065	7.85
660.097	2.85
660.129	-8.15
660.162	-25.15
660.194	-1.15
660.226	5.85
660.259	6.85
660.291	1.85
660.323	3.85
660.356	2.85
660.388	-0.15
660.42	-7.15
660.453	-1.15
660.485	15.85
660.517	14.85
660.55	17.85
660.582	-5.15
660.614	17.85
660.647	-13.15
660.679	-9.15
660.711	13.85
660.743	-25.15
660.776	-12.15
660.808	-6.15
660.84	-6.15
660.873	8.85
660.905	21.85
660.937	4.85
660.969	9.85
661.002	17.85
661.034	8.85
661.066	2.85
661.099	0.85
661.131	11.85
661.163	-11.15
661.195	-3.15
661.228	24.85
661.26	0.85
661.292	-1.15
661.324	5.85
661.357	8.85
661.389	22.85
661.421	18.85
661.453	-5.15
661.485	-0.15
661.518	8.85
661.55	7.85
661.582	-23.15
661.614	10.85
661.647	7.85
661.679	1.85
661.711	12.85
661.743	5.85
661.775	10.85
661.808	27.85
661.84	-3.15
661.872	14.85
661.904	7.85
661.936	11.85
661.969	-1.15
662.001	-6.15
662.033	-0.15
662.065	-10.15
662.097	-10.15
662.129	11.85
662.162	-5.15
662.194	3.85
662.226	9.85
662.258	-1.15
662.29	-7.15
662.322	-17.15
662.355	-21.15
662.387	15.85
662.419	10.85
662.451	8.85
662.483	8.85
662.515	-0.15
662.547	-3.15
662.58	-9.15
662.612	3.85
662.644	0.85
662.676	-5.15
662.708	7.85
662.74	-3.15
662.772	14.85
662.804	5.85
662.836	7.85
662.869	11.85
662.901	11.85
662.933	-0.15
662.965	8.85
662.997	8.85
663.029	0.85
663.061	-5.15
663.093	-1.15
663.125	22.85
663.157	8.85
663.189	-8.15
663.221	-0.15
663.254	-15.15
663.286	11.85
663.318	-8.15
663.35	-6.15
663.382	9.85
663.414	15.85
663.446	7.85
663.478	0.85
663.51	21.85
663.542	-5.15
663.574	17.85
663.606	0.85
663.638	-0.15
663.67	-16.15
663.702	11.85
663.734	9.85
663.766	15.85
663.798	1.85
663.83	10.85
663.862	25.85
663.894	18.85
663.926	-5.15
663.958	26.85
663.99	4.85
664.022	-6.15
664.054	6.85
664.086	-6.15
664.118	-5.15
664.15	-10.15
664.182	10.85
664.214	-4.15
664.246	14.85
664.278	3.85
664.31	19.85
664.342	9.85
664.374	0.85
664.406	-0.15
664.438	3.85
664.47	2.85
664.502	-0.15
664.534	7.85
664.566	-3.15
664.598	-1.15
664.63	-5.15
664.662	2.85
664.693	7.85
664.725	-5.15
664.757	-30.15
664.789	-15.15
664.821	1.85
664.853	16.85
664.885	-3.15
664.917	-9.15
664.949	2.85
664.981	11.85
665.013	7.85
665.045	-3.15
665.076	-12.15
665.108	2.85
665.14	-5.15
665.172	1.85
665.204	-2.15
665.236	5.85
665.268	15.85
665.3	11.85
665.331	-0.15
665.363	5.85
665.395	0.85
665.427	-11.15
665.459	21.85
665.491	-4.15
665.523	-19.15
665.555	-8.15
665.586	10.85
665.618	9.85
665.65	-20.15
665.682	1.85
665.714	6.85
665.746	-14.15
665.777	-4.15
665.809	-3.15
665.841	-5.15
665.873	-6.15
665.905	0.85
665.937	5.85
665.968	13.85
666	-1.15
666.032	10.85
666.064	-4.15
666.096	-7.15
666.127	12.85
666.159	9.85
666.191	13.85
666.223	0.85
666.255	2.85
666.286	6.85
666.318	-2.15
666.35	6.85
666.382	-0.15
666.413	-9.15
666.445	-2.15
666.477	-7.15
666.509	-11.15
666.54	4.85
666.572	3.85
666.604	11.85
666.636	15.85
666.667	18.85
666.699	28.85
666.731	6.85
666.763	-3.15
666.794	1.85
666.826	1.85
666.858	-7.15
666.89	5.85
666.921	9.85
666.953	18.85
666.985	13.85
667.017	10.85
667.048	-0.15
667.08	-19.15
667.112	-1.15
667.143	6.85
667.175	-0.15
667.207	3.85
667.238	-9.15
667.27	4.85
667.302	6.85
667.334	-5.15
667.365	21.85
667.397	5.85
667.429	-6.15
667.46	-5.15
667.492	1.85
667.524	-2.15
667.555	-5.15
667.587	5.85
667.619	7.85
667.65	-5.15
667.682	11.85
667.714	1.85
667.745	1.85
667.777	2.85
667.808	22.85
667.84	14.85
667.872	7.85
667.903	20.85
667.935	6.85
667.967	1.85
667.998	-6.15
668.03	6.85
668.061	8.85
668.093	5.85
668.125	-0.15
668.156	10.85
668.188	-4.15
668.22	5.85
668.251	2.85
668.283	7.85
668.314	6.85
668.346	7.85
668.377	9.85
668.409	13.85
668.441	25.85
668.472	19.85
668.504	22.85
668.535	-5.15
668.567	4.85
668.599	12.85
668.63	0.85
668.662	6.85
668.693	16.85
668.725	11.85
668.756	26.85
668.788	12.85
668.819	-3.15
668.851	-3.15
668.882	10.85
668.914	-6.15
668.946	-5.15
668.977	-1.15
669.009	-3.15
669.04	-18.15
669.072	-1.15
669.103	-2.15
669.135	-3.15
669.166	-0.15
669.198	-1.15
669.229	9.85
669.261	9.85
669.292	-3.15
669.324	3.85
669.355	15.85
669.387	-8.15
669.418	10.85
669.45	-15.15
669.481	-2.15
669.513	12.85
669.544	6.85
669.576	5.85
669.607	20.85
669.639	17.85
669.67	-3.15
669.701	21.85
669.733	2.85
669.764	2.85
669.796	8.85
669.827	2.85
669.859	-10.15
669.89	-8.15
669.922	2.85
669.953	4.85
669.985	2.85
670.016	23.85
670.047	-2.15
670.079	5.85
670.11	3.85
670.142	-2.15
670.173	10.85
670.204	-11.15
670.236	-1.15
670.267	-0.15
670.299	3.85
670.33	12.85
670.362	9.85
670.393	4.85
670.424	7.85
670.456	-8.15
670.487	-7.15
670.518	5.85
670.55	-6.15
670.581	-3.15
670.613	17.85
670.644	15.85
670.675	15.85
670.707	9.85
670.738	2.85
670.769	-4.15
670.801	-14.15
670.832	8.85
670.864	-11.15
670.895	-7.15
670.926	-7.15
670.958	10.85
670.989	1.85
671.02	3.85
671.052	1.85
671.083	-17.15
671.114	-11.15
671.146	6.85
671.177	2.85
671.208	-4.15
671.24	-14.15
671.271	-4.15
671.302	-4.15
671.333	-0.15
671.365	0.85
671.396	-1.15
671.427	7.85
671.459	-6.15
671.49	14.85
671.521	4.85
671.553	27.85
671.584	12.85
671.615	-20.15
671.646	-1.15
671.678	0.85
671.709	1.85
671.74	-16.15
671.771	-2.15
671.803	9.85
671.834	2.85
671.865	10.85
671.896	2.85
671.928	4.85
671.959	6.85
671.99	-0.15
672.021	-0.15
672.053	7.85
672.084	13.85
672.115	13.85
672.146	0.85
672.178	-12.15
672.209	-10.15
672.24	-12.15
672.271	7.85
672.303	-1.15
672.334	-1.15
672.365	6.85
672.396	17.85
672.427	10.85
672.459	20.85
672.49	29.85
672.521	8.85
672.552	19.85
672.583	18.85
672.615	1.85
672.646	15.85
672.677	-3.15
672.708	1.85
672.739	-2.15
672.77	15.85
672.802	-12.15
672.833	-7.15
672.864	-1.15
672.895	-1.15
672.926	-4.15
672.957	-0.15
672.989	-14.15
673.02	-4.15
673.051	-7.15
673.082	25.85
673.113	14.85
673.144	7.85
673.175	-5.15
673.206	1.85
673.238	0.85
673.269	-4.15
673.3	-14.15
673.331	-3.15
673.362	8.85
673.393	-7.15
673.424	4.85
673.455	25.85
673.487	4.85
673.518	12.85
673.549	5.85
673.58	-1.15
673.611	-4.15
673.642	2.85
673.673	-23.15
673.704	2.85
673.735	4.85
673.766	-7.15
673.797	8.85
673.828	2.85
673.86	-5.15
673.891	1.85
673.922	-11.15
673.953	-9.15
673.984	6.85
674.015	5.85
674.046	0.85
674.077	-1.15
674.108	-5.15
674.139	-0.15
674.17	13.85
674.201	-10.15
674.232	-25.15
674.263	-9.15
674.294	-24.15
674.325	-9.15
674.356	-5.15
674.387	24.85
674.418	15.85
674.449	-11.15
674.48	-1.15
674.511	-10.15
674.542	15.85
674.573	-7.15
674.604	14.85
674.635	9.85
674.666	-1.15
674.697	-5.15
674.728	-4.15
674.759	-8.15
674.79	-1.15
674.821	1.85
674.852	-0.15
674.883	-6.15
674.914	-3.15
674.945	-3.15
674.976	-5.15
675.007	7.85
675.038	-8.15
675.069	-7.15
675.1	-11.15
675.131	8.85
675.162	-13.15
675.193	-17.15
675.224	-15.15
675.254	11.85
675.285	11.85
675.316	15.85
675.347	2.85
675.378	-1.15
675.409	-6.15
675.44	12.85
675.471	-1.15
675.502	-6.15
675.533	-3.15
675.564	0.85
675.595	-5.15
675.625	7.85
675.656	1.85
675.687	-5.15
675.718	-6.15
675.749	17.85
675.78	19.85
675.811	-5.15
675.842	-7.15
675.873	-0.15
675.903	0.85
675.934	-4.15
675.965	-12.15
675.996	7.85
676.027	2.85
676.058	-4.15
676.089	-2.15
676.119	-0.15
676.15	-9.15
676.181	6.85
676.212	-0.15
676.243	8.85
676.274	7.85
676.304	8.85
676.335	-0.15
676.366	-11.15
676.397	-7.15
676.428	-8.15
676.459	-5.15
676.489	13.85
676.52	12.85
676.551	-8.15
676.582	-17.15
676.613	0.85
676.643	-2.15
676.674	13.85
676.705	1.85
676.736	8.85
676.767	13.85
676.797	9.85
676.828	6.85
676.859	2.85
676.89	-2.15
676.92	4.85
676.951	7.85
676.982	-1.15
677.013	-14.15
677.044	12.85
677.074	22.85
677.105	-3.15
677.136	10.85
677.167	8.85
677.197	15.85
677.228	3.85
677.259	1.85
677.289	4.85
677.32	-18.15
677.351	-8.15
677.382	1.85
677.412	4.85
677.443	1.85
677.474	-15.15
677.505	-15.15
677.535	0.85
677.566	-2.15
677.597	-5.15
677.627	-18.15
677.658	-24.15
677.689	2.85
677.72	-0.15
677.75	3.85
677.781	25.85
677.812	3.85
677.842	6.85
677.873	1.85
677.904	-15.15
677.934	-3.15
677.965	-2.15
677.996	-6.15
678.026	5.85
678.057	1.85
678.088	-3.15
678.118	2.85
678.149	2.85
678.18	15.85
678.21	18.85
678.241	-3.15
678.272	10.85
678.302	15.85
678.333	-1.15
678.363	-0.15
678.394	7.85
678.425	-5.15
678.455	-9.15
678.486	19.85
678.517	-17.15
678.547	-20.15
678.578	5.85
678.608	-17.15
678.639	16.85
678.67	3.85
678.7	-9.15
678.731	-6.15
678.761	-7.15
678.792	10.85
678.823	7.85
678.853	11.85
678.884	-4.15
678.914	4.85
678.945	28.85
678.975	-4.15
679.006	6.85
679.037	-11.15
679.067	15.85
679.098	-10.15
679.128	-10.15
679.159	-11.15
679.189	19.85
679.22	-5.15
679.25	-13.15
679.281	-8.15
679.312	-0.15
679.342	-10.15
679.373	28.85
679.403	6.85
679.434	8.85
679.464	13.85
679.495	-7.15
679.525	3.85
679.556	-1.15
679.586	3.85
679.617	25.85
679.647	3.85
679.678	7.85
679.708	2.85
679.739	-12.15
679.769	-11.15
679.8	-13.15
679.83	-22.15
679.861	2.85
679.891	-10.15
679.922	-24.15
679.952	-11.15
679.983	-7.15
680.013	-6.15
680.044	-11.15
680.074	7.85
680.105	4.85
680.135	9.85
680.165	16.85
680.196	3.85
680.226	4.85
680.257	16.85
680.287	12.85
680.318	12.85
680.348	0.85
680.379	15.85
680.409	3.85
680.439	-4.15
680.47	-10.15
680.5	7.85
680.531	6.85
680.561	-6.15
680.592	-10.15
680.622	6.85
680.652	10.85
680.683	14.85
680.713	-6.15
680.744	-4.15
680.774	-10.15
680.804	12.85
680.835	-9.15
680.865	-5.15
680.896	12.85
680.926	18.85
680.956	5.85
680.987	-7.15
681.017	5.85
681.047	-0.15
681.078	-10.15
681.108	4.85
681.139	-8.15
681.169	-19.15
681.199	-1.15
681.23	16.85
681.26	-5.15
681.29	-14.15
681.321	-11.15
681.351	4.85
681.381	-14.15
681.412	-0.15
681.442	-0.15
681.472	18.85
681.503	20.85
681.533	7.85
681.563	2.85
681.594	1.85
681.624	11.85
681.654	0.85
681.685	0.85
681.715	-0.15
681.745	-9.15
681.775	-8.15
681.806	-13.15
681.836	2.85
681.866	-6.15
681.897	3.85
681.927	-1.15
681.957	-0.15
681.987	14.85
682.018	1.85
682.048	2.85
682.078	9.85
682.109	24.85
682.139	12.85
682.169	3.85
682.199	9.85
682.23	-2.15
682.26	4.85
682.29	3.85
682.32	1.85
682.351	-3.15
682.381	4.85
682.411	6.85
682.441	13.85
682.472	3.85
682.502	-4.15
682.532	1.85
682.562	-7.15
682.592	13.85
