Data from HighRes_mercury_15_13_11_07_2024_HR4C61891__29__15-14-26-086.txt Node

Date: Thu Nov 07 15:14:26 EST 2024
User: crc00042
Spectrometer: HR4C6189
Trigger mode: 4
Integration Time (sec): 1.000000E-1
Scans to average: 1
Electric dark correction enabled: true
Nonlinearity correction enabled: false
Boxcar width: 0
XAxis mode: Wavelengths
Number of Pixels in Spectrum: 3648
>>>>>Begin Spectral Data<<<<<
639.567	-48.38
639.602	-48.38
639.636	-48.38
639.67	-44.38
639.704	-14.38
639.738	2.62
639.773	2.62
639.807	-20.38
639.841	-9.38
639.875	8.62
639.909	1.62
639.943	-3.38
639.978	4.62
640.012	-4.38
640.046	-3.38
640.08	2.62
640.114	11.62
640.148	6.62
640.182	-10.38
640.217	-16.38
640.251	14.62
640.285	10.62
640.319	2.62
640.353	5.62
640.387	7.62
640.421	2.62
640.455	-2.38
640.49	-18.38
640.524	-0.38
640.558	11.62
640.592	5.62
640.626	4.62
640.66	4.62
640.694	-14.38
640.728	-7.38
640.762	9.62
640.796	35.62
640.83	32.62
640.865	-9.38
640.899	6.62
640.933	11.62
640.967	12.62
641.001	0.62
641.035	4.62
641.069	-9.38
641.103	-13.38
641.137	-9.38
641.171	-7.38
641.205	10.62
641.239	8.62
641.273	23.62
641.307	9.62
641.341	-11.38
641.375	2.62
641.409	-16.38
641.443	-0.38
641.477	13.62
641.511	32.62
641.545	20.62
641.579	5.62
641.614	11.62
641.648	1.62
641.682	-0.38
641.716	0.62
641.75	13.62
641.784	-0.38
641.818	-2.38
641.852	2.62
641.886	-8.38
641.919	18.62
641.953	6.62
641.987	-12.38
642.021	-5.38
642.055	1.62
642.089	15.62
642.123	-5.38
642.157	-9.38
642.191	-8.38
642.225	13.62
642.259	0.62
642.293	9.62
642.327	-7.38
642.361	-14.38
642.395	4.62
642.429	-1.38
642.463	-5.38
642.497	22.62
642.531	-0.38
642.565	-2.38
642.599	9.62
642.633	-2.38
642.666	11.62
642.7	2.62
642.734	-0.38
642.768	10.62
642.802	5.62
642.836	6.62
642.87	5.62
642.904	-12.38
642.938	16.62
642.972	5.62
643.005	7.62
643.039	16.62
643.073	-0.38
643.107	3.62
643.141	5.62
643.175	2.62
643.209	7.62
643.243	7.62
643.276	7.62
643.31	4.62
643.344	-5.38
643.378	1.62
643.412	4.62
643.446	6.62
643.48	3.62
643.513	17.62
643.547	2.62
643.581	0.62
643.615	17.62
643.649	14.62
643.683	-3.38
643.716	-10.38
643.75	13.62
643.784	-12.38
643.818	7.62
643.852	-11.38
643.886	-4.38
643.919	1.62
643.953	-2.38
643.987	4.62
644.021	3.62
644.055	-2.38
644.088	-17.38
644.122	-15.38
644.156	-4.38
644.19	4.62
644.224	3.62
644.257	18.62
644.291	16.62
644.325	4.62
644.359	12.62
644.392	31.62
644.426	24.62
644.46	-1.38
644.494	1.62
644.527	-7.38
644.561	1.62
644.595	3.62
644.629	-7.38
644.662	-7.38
644.696	18.62
644.73	-15.38
644.764	-13.38
644.797	2.62
644.831	-1.38
644.865	13.62
644.899	10.62
644.932	27.62
644.966	19.62
645	4.62
645.033	19.62
645.067	-11.38
645.101	0.62
645.135	2.62
645.168	2.62
645.202	-14.38
645.236	15.62
645.269	6.62
645.303	3.62
645.337	-24.38
645.37	-8.38
645.404	-0.38
645.438	-2.38
645.471	-14.38
645.505	13.62
645.539	15.62
645.572	-16.38
645.606	-11.38
645.64	1.62
645.673	19.62
645.707	21.62
645.741	3.62
645.774	-22.38
645.808	4.62
645.842	3.62
645.875	-6.38
645.909	-11.38
645.943	-16.38
645.976	-2.38
646.01	12.62
646.043	1.62
646.077	15.62
646.111	12.62
646.144	3.62
646.178	-8.38
646.212	-15.38
646.245	-10.38
646.279	7.62
646.312	8.62
646.346	11.62
646.38	-5.38
646.413	1.62
646.447	0.62
646.48	14.62
646.514	-4.38
646.547	-7.38
646.581	-17.38
646.615	-4.38
646.648	-17.38
646.682	5.62
646.715	9.62
646.749	17.62
646.782	-6.38
646.816	-8.38
646.85	15.62
646.883	-7.38
646.917	3.62
646.95	-3.38
646.984	16.62
647.017	-2.38
647.051	4.62
647.084	14.62
647.118	-7.38
647.151	6.62
647.185	9.62
647.218	-10.38
647.252	-7.38
647.285	-11.38
647.319	-33.38
647.353	9.62
647.386	17.62
647.42	3.62
647.453	-12.38
647.487	0.62
647.52	-2.38
647.553	10.62
647.587	1.62
647.62	-4.38
647.654	-6.38
647.687	11.62
647.721	0.62
647.754	4.62
647.788	16.62
647.821	0.62
647.855	11.62
647.888	13.62
647.922	10.62
647.955	25.62
647.989	4.62
648.022	1.62
648.055	4.62
648.089	-4.38
648.122	26.62
648.156	-3.38
648.189	-15.38
648.223	11.62
648.256	11.62
648.29	3.62
648.323	5.62
648.356	23.62
648.39	20.62
648.423	6.62
648.457	-1.38
648.49	17.62
648.523	14.62
648.557	-6.38
648.59	-9.38
648.624	-4.38
648.657	6.62
648.69	19.62
648.724	19.62
648.757	19.62
648.791	6.62
648.824	11.62
648.857	30.62
648.891	5.62
648.924	-12.38
648.957	9.62
648.991	1.62
649.024	14.62
649.057	-6.38
649.091	-6.38
649.124	2.62
649.158	18.62
649.191	25.62
649.224	-13.38
649.258	-3.38
649.291	0.62
649.324	-5.38
649.358	-8.38
649.391	-1.38
649.424	-1.38
649.458	-3.38
649.491	10.62
649.524	-16.38
649.557	-8.38
649.591	-18.38
649.624	10.62
649.657	-7.38
649.691	-12.38
649.724	-1.38
649.757	7.62
649.791	-3.38
649.824	6.62
649.857	10.62
649.89	5.62
649.924	-15.38
649.957	10.62
649.99	-4.38
650.023	2.62
650.057	1.62
650.09	17.62
650.123	-2.38
650.157	1.62
650.19	16.62
650.223	2.62
650.256	-8.38
650.29	2.62
650.323	-3.38
650.356	9.62
650.389	12.62
650.423	-7.38
650.456	6.62
650.489	-11.38
650.522	4.62
650.555	15.62
650.589	-0.38
650.622	5.62
650.655	11.62
650.688	5.62
650.721	3.62
650.755	-2.38
650.788	5.62
650.821	6.62
650.854	5.62
650.887	6.62
650.921	8.62
650.954	-18.38
650.987	-0.38
651.02	-10.38
651.053	-11.38
651.087	-16.38
651.12	29.62
651.153	12.62
651.186	18.62
651.219	-8.38
651.252	-5.38
651.286	12.62
651.319	-5.38
651.352	-2.38
651.385	0.62
651.418	5.62
651.451	25.62
651.484	11.62
651.518	-9.38
651.551	20.62
651.584	-10.38
651.617	36.62
651.65	11.62
651.683	20.62
651.716	5.62
651.749	-6.38
651.783	12.62
651.816	11.62
651.849	20.62
651.882	7.62
651.915	-5.38
651.948	-4.38
651.981	-6.38
652.014	-14.38
652.047	-15.38
652.08	3.62
652.114	11.62
652.147	0.62
652.18	7.62
652.213	20.62
652.246	-2.38
652.279	-14.38
652.312	11.62
652.345	5.62
652.378	-2.38
652.411	7.62
652.444	18.62
652.477	8.62
652.51	-2.38
652.543	0.62
652.576	5.62
652.609	-5.38
652.642	10.62
652.675	4.62
652.709	4.62
652.742	6.62
652.775	-2.38
652.808	8.62
652.841	-2.38
652.874	-2.38
652.907	-5.38
652.94	-11.38
652.973	-9.38
653.006	-15.38
653.039	-5.38
653.072	-7.38
653.105	-10.38
653.138	-20.38
653.171	-4.38
653.204	10.62
653.237	13.62
653.27	0.62
653.303	11.62
653.336	9.62
653.368	-8.38
653.401	-1.38
653.434	-5.38
653.467	6.62
653.5	-12.38
653.533	-7.38
653.566	13.62
653.599	1.62
653.632	16.62
653.665	5.62
653.698	-11.38
653.731	3.62
653.764	8.62
653.797	8.62
653.83	16.62
653.863	6.62
653.896	2.62
653.929	-4.38
653.961	6.62
653.994	-5.38
654.027	0.62
654.06	5.62
654.093	3.62
654.126	1.62
654.159	-4.38
654.192	17.62
654.225	-7.38
654.258	-5.38
654.29	6.62
654.323	6.62
654.356	-3.38
654.389	10.62
654.422	5.62
654.455	2.62
654.488	12.62
654.521	-4.38
654.553	-16.38
654.586	16.62
654.619	-7.38
654.652	3.62
654.685	17.62
654.718	10.62
654.751	14.62
654.783	-9.38
654.816	9.62
654.849	-1.38
654.882	-13.38
654.915	-24.38
654.948	-1.38
654.98	3.62
655.013	5.62
655.046	-3.38
655.079	-2.38
655.112	5.62
655.144	-21.38
655.177	2.62
655.21	4.62
655.243	5.62
655.276	2.62
655.308	6.62
655.341	-11.38
655.374	5.62
655.407	-3.38
655.44	13.62
655.472	33.62
655.505	3.62
655.538	-15.38
655.571	8.62
655.603	9.62
655.636	7.62
655.669	20.62
655.702	-7.38
655.734	-14.38
655.767	-11.38
655.8	-2.38
655.833	9.62
655.865	6.62
655.898	5.62
655.931	-3.38
655.964	12.62
655.996	-1.38
656.029	0.62
656.062	-0.38
656.095	-5.38
656.127	-6.38
656.16	-1.38
656.193	-7.38
656.225	3.62
656.258	11.62
656.291	2.62
656.324	-1.38
656.356	7.62
656.389	-10.38
656.422	5.62
656.454	-8.38
656.487	7.62
656.52	10.62
656.552	-0.38
656.585	15.62
656.618	11.62
656.65	7.62
656.683	3.62
656.716	0.62
656.748	-8.38
656.781	-7.38
656.814	-9.38
656.846	11.62
656.879	3.62
656.912	3.62
656.944	-10.38
656.977	-11.38
657.01	-2.38
657.042	5.62
657.075	10.62
657.108	19.62
657.14	22.62
657.173	16.62
657.205	26.62
657.238	0.62
657.271	4.62
657.303	-9.38
657.336	-2.38
657.369	5.62
657.401	0.62
657.434	3.62
657.466	-4.38
657.499	-5.38
657.532	0.62
657.564	21.62
657.597	10.62
657.629	7.62
657.662	9.62
657.694	-5.38
657.727	-12.38
657.76	3.62
657.792	-11.38
657.825	-8.38
657.857	-3.38
657.89	2.62
657.922	1.62
657.955	-4.38
657.987	3.62
658.02	16.62
658.053	8.62
658.085	8.62
658.118	4.62
658.15	5.62
658.183	5.62
658.215	-1.38
658.248	0.62
658.28	3.62
658.313	32.62
658.345	1.62
658.378	3.62
658.41	11.62
658.443	14.62
658.475	21.62
658.508	1.62
658.54	9.62
658.573	1.62
658.605	-5.38
658.638	1.62
658.67	-6.38
658.703	-6.38
658.735	-4.38
658.768	7.62
658.8	-13.38
658.833	32.62
658.865	5.62
658.898	-3.38
658.93	-2.38
658.963	8.62
658.995	-19.38
659.028	14.62
659.06	-1.38
659.092	6.62
659.125	3.62
659.157	-8.38
659.19	-13.38
659.222	-13.38
659.255	-3.38
659.287	-1.38
659.32	3.62
659.352	3.62
659.384	9.62
659.417	-1.38
659.449	4.62
659.482	23.62
659.514	-4.38
659.546	-4.38
659.579	-12.38
659.611	18.62
659.644	-5.38
659.676	-2.38
659.708	-9.38
659.741	-8.38
659.773	-6.38
659.806	-1.38
659.838	9.62
659.87	7.62
659.903	-4.38
659.935	11.62
659.967	-0.38
660	10.62
660.032	-29.38
660.065	3.62
660.097	7.62
660.129	-1.38
660.162	-0.38
660.194	1.62
660.226	21.62
660.259	9.62
660.291	4.62
660.323	8.62
660.356	-2.38
660.388	-11.38
660.42	-1.38
660.453	22.62
660.485	20.62
660.517	20.62
660.55	12.62
660.582	3.62
660.614	9.62
660.647	6.62
660.679	-8.38
660.711	15.62
660.743	-8.38
660.776	-13.38
660.808	1.62
660.84	-3.38
660.873	-9.38
660.905	-2.38
660.937	8.62
660.969	-4.38
661.002	6.62
661.034	7.62
661.066	-10.38
661.099	5.62
661.131	23.62
661.163	4.62
661.195	6.62
661.228	5.62
661.26	-4.38
661.292	4.62
661.324	-3.38
661.357	-2.38
661.389	14.62
661.421	10.62
661.453	6.62
661.485	17.62
661.518	8.62
661.55	-18.38
661.582	-10.38
661.614	-4.38
661.647	2.62
661.679	3.62
661.711	-1.38
661.743	-1.38
661.775	-3.38
661.808	19.62
661.84	-3.38
661.872	1.62
661.904	-2.38
661.936	8.62
661.969	1.62
662.001	3.62
662.033	9.62
662.065	9.62
662.097	11.62
662.129	20.62
662.162	-7.38
662.194	-4.38
662.226	1.62
662.258	0.62
662.29	7.62
662.322	-18.38
662.355	-8.38
662.387	9.62
662.419	9.62
662.451	25.62
662.483	17.62
662.515	-15.38
662.547	6.62
662.58	0.62
662.612	-2.38
662.644	-9.38
662.676	-10.38
662.708	7.62
662.74	3.62
662.772	-5.38
662.804	12.62
662.836	3.62
662.869	19.62
662.901	11.62
662.933	10.62
662.965	2.62
662.997	-6.38
663.029	-0.38
663.061	-4.38
663.093	-17.38
663.125	5.62
663.157	24.62
663.189	0.62
663.221	7.62
663.254	13.62
663.286	0.62
663.318	-22.38
663.35	-27.38
663.382	4.62
663.414	-7.38
663.446	13.62
663.478	-0.38
663.51	26.62
663.542	15.62
663.574	6.62
663.606	4.62
663.638	-8.38
663.67	-9.38
663.702	-0.38
663.734	-4.38
663.766	13.62
663.798	-13.38
663.83	18.62
663.862	7.62
663.894	16.62
663.926	11.62
663.958	-11.38
663.99	9.62
664.022	4.62
664.054	8.62
664.086	-9.38
664.118	-26.38
664.15	-13.38
664.182	-0.38
664.214	9.62
664.246	20.62
664.278	-2.38
664.31	18.62
664.342	12.62
664.374	-13.38
664.406	-8.38
664.438	3.62
664.47	-0.38
664.502	-11.38
664.534	7.62
664.566	1.62
664.598	15.62
664.63	6.62
664.662	3.62
664.693	-3.38
664.725	-7.38
664.757	9.62
664.789	-2.38
664.821	-12.38
664.853	13.62
664.885	3.62
664.917	-2.38
664.949	8.62
664.981	25.62
665.013	9.62
665.045	3.62
665.076	-6.38
665.108	8.62
665.14	7.62
665.172	-6.38
665.204	2.62
665.236	-8.38
665.268	9.62
665.3	3.62
665.331	-1.38
665.363	-1.38
665.395	-13.38
665.427	-8.38
665.459	1.62
665.491	-1.38
665.523	4.62
665.555	-2.38
665.586	6.62
665.618	16.62
665.65	-15.38
665.682	6.62
665.714	2.62
665.746	-7.38
665.777	4.62
665.809	9.62
665.841	-0.38
665.873	0.62
665.905	10.62
665.937	10.62
665.968	9.62
666	1.62
666.032	11.62
666.064	-5.38
666.096	-0.38
666.127	2.62
666.159	12.62
666.191	1.62
666.223	-2.38
666.255	4.62
666.286	11.62
666.318	0.62
666.35	13.62
666.382	2.62
666.413	-11.38
666.445	-14.38
666.477	-10.38
666.509	-2.38
666.54	-4.38
666.572	3.62
666.604	-16.38
666.636	7.62
666.667	-1.38
666.699	21.62
666.731	13.62
666.763	7.62
666.794	-5.38
666.826	1.62
666.858	-8.38
666.89	8.62
666.921	5.62
666.953	10.62
666.985	10.62
667.017	11.62
667.048	-0.38
667.08	-7.38
667.112	4.62
667.143	-9.38
667.175	5.62
667.207	0.62
667.238	-4.38
667.27	-0.38
667.302	-5.38
667.334	-6.38
667.365	15.62
667.397	-12.38
667.429	-12.38
667.46	14.62
667.492	5.62
667.524	2.62
667.555	-7.38
667.587	6.62
667.619	-0.38
667.65	-12.38
667.682	-0.38
667.714	12.62
667.745	-3.38
667.777	-0.38
667.808	8.62
667.84	5.62
667.872	2.62
667.903	29.62
667.935	4.62
667.967	16.62
667.998	8.62
668.03	11.62
668.061	12.62
668.093	3.62
668.125	20.62
668.156	0.62
668.188	2.62
668.22	11.62
668.251	10.62
668.283	-1.38
668.314	16.62
668.346	10.62
668.377	12.62
668.409	1.62
668.441	23.62
668.472	11.62
668.504	9.62
668.535	5.62
668.567	4.62
668.599	-3.38
668.63	-0.38
668.662	0.62
668.693	36.62
668.725	20.62
668.756	14.62
668.788	-2.38
668.819	-7.38
668.851	3.62
668.882	7.62
668.914	-1.38
668.946	-2.38
668.977	-8.38
669.009	1.62
669.04	-14.38
669.072	3.62
669.103	8.62
669.135	3.62
669.166	0.62
669.198	-8.38
669.229	10.62
669.261	-1.38
669.292	3.62
669.324	14.62
669.355	17.62
669.387	-10.38
669.418	9.62
669.45	-20.38
669.481	3.62
669.513	11.62
669.544	18.62
669.576	-2.38
669.607	12.62
669.639	23.62
669.67	14.62
669.701	23.62
669.733	-9.38
669.764	-0.38
669.796	-8.38
669.827	-2.38
669.859	0.62
669.89	3.62
669.922	6.62
669.953	12.62
669.985	5.62
670.016	-2.38
670.047	2.62
670.079	-5.38
670.11	-6.38
670.142	-13.38
670.173	-3.38
670.204	2.62
670.236	19.62
670.267	3.62
670.299	16.62
670.33	10.62
670.362	-4.38
670.393	-11.38
670.424	1.62
670.456	-11.38
670.487	-17.38
670.518	2.62
670.55	18.62
670.581	19.62
670.613	4.62
670.644	-2.38
670.675	-0.38
670.707	-5.38
670.738	10.62
670.769	-17.38
670.801	-19.38
670.832	12.62
670.864	-20.38
670.895	7.62
670.926	0.62
670.958	0.62
670.989	-8.38
671.02	-0.38
671.052	3.62
671.083	6.62
671.114	-12.38
671.146	17.62
671.177	1.62
671.208	-1.38
671.24	-20.38
671.271	-2.38
671.302	-0.38
671.333	-1.38
671.365	-15.38
671.396	-9.38
671.427	2.62
671.459	0.62
671.49	6.62
671.521	10.62
671.553	9.62
671.584	7.62
671.615	-5.38
671.646	3.62
671.678	-8.38
671.709	-15.38
671.74	-0.38
671.771	6.62
671.803	6.62
671.834	0.62
671.865	-5.38
671.896	-2.38
671.928	-4.38
671.959	-12.38
671.99	-4.38
672.021	-3.38
672.053	3.62
672.084	11.62
672.115	-4.38
672.146	0.62
672.178	-1.38
672.209	8.62
672.24	10.62
672.271	20.62
672.303	6.62
672.334	-5.38
672.365	-12.38
672.396	-4.38
672.427	1.62
672.459	12.62
672.49	12.62
672.521	-4.38
672.552	27.62
672.583	-2.38
672.615	-14.38
672.646	2.62
672.677	-1.38
672.708	-4.38
672.739	-6.38
672.77	18.62
672.802	22.62
672.833	11.62
672.864	14.62
672.895	-13.38
672.926	-7.38
672.957	-21.38
672.989	-6.38
673.02	18.62
673.051	9.62
673.082	23.62
673.113	2.62
673.144	6.62
673.175	21.62
673.206	-4.38
673.238	-4.38
673.269	9.62
673.3	8.62
673.331	15.62
673.362	14.62
673.393	3.62
673.424	-5.38
673.455	27.62
673.487	5.62
673.518	3.62
673.549	-1.38
673.58	10.62
673.611	3.62
673.642	-2.38
673.673	-22.38
673.704	-2.38
673.735	3.62
673.766	-16.38
673.797	3.62
673.828	13.62
673.86	0.62
673.891	-19.38
673.922	-1.38
673.953	2.62
673.984	-9.38
674.015	16.62
674.046	-5.38
674.077	0.62
674.108	1.62
674.139	-3.38
674.17	6.62
674.201	0.62
674.232	-8.38
674.263	-16.38
674.294	-21.38
674.325	-11.38
674.356	1.62
674.387	18.62
674.418	0.62
674.449	0.62
674.48	-2.38
674.511	-8.38
674.542	-3.38
674.573	-4.38
674.604	11.62
674.635	5.62
674.666	-6.38
674.697	3.62
674.728	-4.38
674.759	4.62
674.79	-11.38
674.821	-5.38
674.852	5.62
674.883	-15.38
674.914	-16.38
674.945	4.62
674.976	-6.38
675.007	-31.38
675.038	-2.38
675.069	-9.38
675.1	-13.38
675.131	-8.38
675.162	-6.38
675.193	-5.38
675.224	-13.38
675.254	-2.38
675.285	2.62
675.316	14.62
675.347	-0.38
675.378	-4.38
675.409	7.62
675.44	10.62
675.471	10.62
675.502	-6.38
675.533	-2.38
675.564	0.62
675.595	5.62
675.625	9.62
675.656	5.62
675.687	7.62
675.718	-13.38
675.749	12.62
675.78	14.62
675.811	1.62
675.842	10.62
675.873	1.62
675.903	3.62
675.934	-4.38
675.965	-8.38
675.996	3.62
676.027	17.62
676.058	7.62
676.089	-14.38
676.119	0.62
676.15	-10.38
676.181	-12.38
676.212	-11.38
676.243	6.62
676.274	-4.38
676.304	16.62
676.335	-9.38
676.366	-4.38
676.397	8.62
676.428	-3.38
676.459	-5.38
676.489	16.62
676.52	10.62
676.551	1.62
676.582	-6.38
676.613	19.62
676.643	3.62
676.674	7.62
676.705	3.62
676.736	12.62
676.767	28.62
676.797	22.62
676.828	15.62
676.859	-1.38
676.89	4.62
676.92	3.62
676.951	-0.38
676.982	5.62
677.013	3.62
677.044	23.62
677.074	27.62
677.105	-8.38
677.136	4.62
677.167	2.62
677.197	-0.38
677.228	-0.38
677.259	-1.38
677.289	-3.38
677.32	-16.38
677.351	-16.38
677.382	4.62
677.412	-7.38
677.443	16.62
677.474	13.62
677.505	-4.38
677.535	12.62
677.566	-0.38
677.597	-11.38
677.627	-13.38
677.658	6.62
677.689	12.62
677.72	-8.38
677.75	6.62
677.781	-4.38
677.812	-0.38
677.842	6.62
677.873	8.62
677.904	-8.38
677.934	-11.38
677.965	-5.38
677.996	-1.38
678.026	11.62
678.057	12.62
678.088	7.62
678.118	3.62
678.149	0.62
678.18	-0.38
678.21	9.62
678.241	-4.38
678.272	-6.38
678.302	-1.38
678.333	9.62
678.363	10.62
678.394	20.62
678.425	6.62
678.455	7.62
678.486	6.62
678.517	-7.38
678.547	3.62
678.578	-18.38
678.608	-21.38
678.639	3.62
678.67	16.62
678.7	-4.38
678.731	-5.38
678.761	7.62
678.792	11.62
678.823	-4.38
678.853	5.62
678.884	4.62
678.914	7.62
678.945	-3.38
678.975	0.62
679.006	22.62
679.037	-2.38
679.067	35.62
679.098	0.62
679.128	0.62
679.159	-2.38
679.189	5.62
679.22	-18.38
679.25	14.62
679.281	-1.38
679.312	0.62
679.342	-3.38
679.373	35.62
679.403	3.62
679.434	2.62
679.464	2.62
679.495	12.62
679.525	7.62
679.556	-1.38
679.586	0.62
679.617	6.62
679.647	3.62
679.678	4.62
679.708	4.62
679.739	-2.38
679.769	2.62
679.8	-7.38
679.83	2.62
679.861	5.62
679.891	-5.38
679.922	-6.38
679.952	-9.38
679.983	-0.38
680.013	7.62
680.044	-10.38
680.074	-0.38
680.105	4.62
680.135	-0.38
680.165	19.62
680.196	2.62
680.226	12.62
680.257	2.62
680.287	-10.38
680.318	0.62
680.348	-14.38
680.379	6.62
680.409	15.62
680.439	15.62
680.47	-4.38
680.5	0.62
680.531	2.62
680.561	8.62
680.592	6.62
680.622	14.62
680.652	-0.38
680.683	22.62
680.713	-5.38
680.744	-8.38
680.774	-7.38
680.804	2.62
680.835	19.62
680.865	8.62
680.896	8.62
680.926	20.62
680.956	-4.38
680.987	3.62
681.017	-6.38
681.047	13.62
681.078	-13.38
681.108	-2.38
681.139	-12.38
681.169	12.62
681.199	-7.38
681.23	7.62
681.26	-14.38
681.29	4.62
681.321	-9.38
681.351	1.62
681.381	5.62
681.412	14.62
681.442	6.62
681.472	1.62
681.503	-11.38
681.533	-11.38
681.563	-6.38
681.594	-11.38
681.624	7.62
681.654	10.62
681.685	6.62
681.715	3.62
681.745	-10.38
681.775	-7.38
681.806	-0.38
681.836	0.62
681.866	-6.38
681.897	1.62
681.927	-12.38
681.957	-19.38
681.987	0.62
682.018	9.62
682.048	-0.38
682.078	-5.38
682.109	-1.38
682.139	0.62
682.169	10.62
682.199	-0.38
682.23	4.62
682.26	8.62
682.29	-6.38
682.32	-1.38
682.351	1.62
682.381	9.62
682.411	3.62
682.441	6.62
682.472	-1.38
682.502	2.62
682.532	8.62
682.562	2.62
682.592	-0.38
682.623	11.62
