Data from HighRes_mercury_15_13_11_07_2024_HR4C61891__16__15-14-24-786.txt Node

Date: Thu Nov 07 15:14:24 EST 2024
User: crc00042
Spectrometer: HR4C6189
Trigger mode: 4
Integration Time (sec): 1.000000E-1
Scans to average: 1
Electric dark correction enabled: true
Nonlinearity correction enabled: false
Boxcar width: 0
XAxis mode: Wavelengths
Number of Pixels in Spectrum: 3648
>>>>>Begin Spectral Data<<<<<
639.567	-45.31
639.602	-45.31
639.636	-45.31
639.67	-39.31
639.704	-7.31
639.738	-5.31
639.773	14.69
639.807	-12.31
639.841	8.69
639.875	13.69
639.909	-15.31
639.943	-14.31
639.978	5.69
640.012	-6.31
640.046	4.69
640.08	16.69
640.114	-0.31
640.148	-10.31
640.182	-13.31
640.217	-2.31
640.251	7.69
640.285	-4.31
640.319	-13.31
640.353	-10.31
640.387	4.69
640.421	-6.31
640.455	-6.31
640.49	3.69
640.524	9.69
640.558	7.69
640.592	2.69
640.626	8.69
640.66	-1.31
640.694	-14.31
640.728	14.69
640.762	5.69
640.796	23.69
640.83	14.69
640.865	1.69
640.899	-8.31
640.933	-13.31
640.967	-2.31
641.001	9.69
641.035	12.69
641.069	-2.31
641.103	6.69
641.137	-21.31
641.171	-12.31
641.205	7.69
641.239	-9.31
641.273	1.69
641.307	11.69
641.341	3.69
641.375	15.69
641.409	1.69
641.443	5.69
641.477	26.69
641.511	14.69
641.545	2.69
641.579	7.69
641.614	6.69
641.648	12.69
641.682	-0.31
641.716	5.69
641.75	14.69
641.784	5.69
641.818	-15.31
641.852	-9.31
641.886	3.69
641.919	30.69
641.953	5.69
641.987	-21.31
642.021	-8.31
642.055	2.69
642.089	17.69
642.123	-16.31
642.157	-10.31
642.191	-10.31
642.225	1.69
642.259	-7.31
642.293	23.69
642.327	1.69
642.361	12.69
642.395	4.69
642.429	11.69
642.463	13.69
642.497	12.69
642.531	2.69
642.565	2.69
642.599	-2.31
642.633	-11.31
642.666	12.69
642.7	1.69
642.734	6.69
642.768	1.69
642.802	12.69
642.836	6.69
642.87	-0.31
642.904	15.69
642.938	7.69
642.972	0.69
643.005	5.69
643.039	2.69
643.073	-6.31
643.107	5.69
643.141	6.69
643.175	-1.31
643.209	11.69
643.243	13.69
643.276	7.69
643.31	-0.31
643.344	-14.31
643.378	10.69
643.412	12.69
643.446	14.69
643.48	10.69
643.513	8.69
643.547	9.69
643.581	13.69
643.615	13.69
643.649	-11.31
643.683	-12.31
643.716	0.69
643.75	2.69
643.784	-10.31
643.818	19.69
643.852	-0.31
643.886	0.69
643.919	6.69
643.953	-2.31
643.987	1.69
644.021	6.69
644.055	18.69
644.088	0.69
644.122	-5.31
644.156	-9.31
644.19	-9.31
644.224	-4.31
644.257	4.69
644.291	17.69
644.325	3.69
644.359	-12.31
644.392	23.69
644.426	9.69
644.46	-4.31
644.494	6.69
644.527	5.69
644.561	17.69
644.595	-2.31
644.629	0.69
644.662	-5.31
644.696	8.69
644.73	6.69
644.764	23.69
644.797	-4.31
644.831	-2.31
644.865	9.69
644.899	-7.31
644.932	23.69
644.966	13.69
645	1.69
645.033	3.69
645.067	-5.31
645.101	11.69
645.135	6.69
645.168	3.69
645.202	1.69
645.236	2.69
645.269	10.69
645.303	-12.31
645.337	-5.31
645.37	3.69
645.404	-0.31
645.438	-0.31
645.471	5.69
645.505	10.69
645.539	-5.31
645.572	-3.31
645.606	-1.31
645.64	-3.31
645.673	2.69
645.707	25.69
645.741	-1.31
645.774	-4.31
645.808	-0.31
645.842	5.69
645.875	5.69
645.909	-10.31
645.943	-18.31
645.976	6.69
646.01	-1.31
646.043	7.69
646.077	12.69
646.111	-5.31
646.144	7.69
646.178	3.69
646.212	-7.31
646.245	-9.31
646.279	9.69
646.312	13.69
646.346	13.69
646.38	-8.31
646.413	-6.31
646.447	17.69
646.48	2.69
646.514	-1.31
646.547	4.69
646.581	-0.31
646.615	-8.31
646.648	-10.31
646.682	-18.31
646.715	-8.31
646.749	-1.31
646.782	-4.31
646.816	6.69
646.85	7.69
646.883	-6.31
646.917	15.69
646.95	9.69
646.984	-6.31
647.017	-10.31
647.051	1.69
647.084	6.69
647.118	-14.31
647.151	-1.31
647.185	18.69
647.218	-19.31
647.252	-3.31
647.285	-12.31
647.319	-9.31
647.353	-2.31
647.386	17.69
647.42	7.69
647.453	-15.31
647.487	7.69
647.52	-2.31
647.553	-2.31
647.587	-10.31
647.62	-8.31
647.654	1.69
647.687	8.69
647.721	-8.31
647.754	-0.31
647.788	-10.31
647.821	-11.31
647.855	16.69
647.888	17.69
647.922	20.69
647.955	-5.31
647.989	-3.31
648.022	-3.31
648.055	9.69
648.089	4.69
648.122	14.69
648.156	-3.31
648.189	-2.31
648.223	2.69
648.256	22.69
648.29	9.69
648.323	7.69
648.356	4.69
648.39	6.69
648.423	17.69
648.457	5.69
648.49	12.69
648.523	11.69
648.557	-24.31
648.59	-10.31
648.624	6.69
648.657	-4.31
648.69	19.69
648.724	16.69
648.757	13.69
648.791	8.69
648.824	-6.31
648.857	22.69
648.891	4.69
648.924	7.69
648.957	26.69
648.991	-2.31
649.024	4.69
649.057	-6.31
649.091	-4.31
649.124	0.69
649.158	13.69
649.191	22.69
649.224	-5.31
649.258	-0.31
649.291	-1.31
649.324	-4.31
649.358	0.69
649.391	19.69
649.424	16.69
649.458	2.69
649.491	6.69
649.524	-1.31
649.557	-6.31
649.591	-5.31
649.624	6.69
649.657	-1.31
649.691	0.69
649.724	4.69
649.757	8.69
649.791	-4.31
649.824	15.69
649.857	5.69
649.89	-5.31
649.924	-5.31
649.957	11.69
649.99	0.69
650.023	-5.31
650.057	-2.31
650.09	11.69
650.123	-6.31
650.157	11.69
650.19	20.69
650.223	0.69
650.256	-24.31
650.29	-11.31
650.323	-2.31
650.356	15.69
650.389	-0.31
650.423	-15.31
650.456	13.69
650.489	0.69
650.522	-6.31
650.555	21.69
650.589	7.69
650.622	5.69
650.655	4.69
650.688	5.69
650.721	-6.31
650.755	-2.31
650.788	0.69
650.821	-6.31
650.854	3.69
650.887	2.69
650.921	0.69
650.954	-1.31
650.987	-5.31
651.02	-11.31
651.053	-22.31
651.087	-14.31
651.12	17.69
651.153	-2.31
651.186	-1.31
651.219	-8.31
651.252	6.69
651.286	19.69
651.319	9.69
651.352	0.69
651.385	3.69
651.418	4.69
651.451	1.69
651.484	4.69
651.518	2.69
651.551	33.69
651.584	-0.31
651.617	20.69
651.65	-8.31
651.683	-0.31
651.716	4.69
651.749	-1.31
651.783	-16.31
651.816	-5.31
651.849	16.69
651.882	-0.31
651.915	-0.31
651.948	0.69
651.981	-4.31
652.014	-4.31
652.047	-0.31
652.08	-26.31
652.114	7.69
652.147	-7.31
652.18	10.69
652.213	22.69
652.246	2.69
652.279	1.69
652.312	2.69
652.345	-3.31
652.378	2.69
652.411	18.69
652.444	11.69
652.477	10.69
652.51	8.69
652.543	-7.31
652.576	20.69
652.609	-5.31
652.642	-1.31
652.675	10.69
652.709	2.69
652.742	5.69
652.775	-1.31
652.808	-5.31
652.841	18.69
652.874	13.69
652.907	-0.31
652.94	-10.31
652.973	-19.31
653.006	-7.31
653.039	-8.31
653.072	0.69
653.105	2.69
653.138	-8.31
653.171	-1.31
653.204	-2.31
653.237	11.69
653.27	-5.31
653.303	15.69
653.336	11.69
653.368	-13.31
653.401	-1.31
653.434	-2.31
653.467	4.69
653.5	-26.31
653.533	-31.31
653.566	18.69
653.599	-5.31
653.632	-9.31
653.665	1.69
653.698	-0.31
653.731	-6.31
653.764	19.69
653.797	-10.31
653.83	9.69
653.863	-6.31
653.896	6.69
653.929	5.69
653.961	-10.31
653.994	2.69
654.027	-2.31
654.06	16.69
654.093	0.69
654.126	2.69
654.159	-9.31
654.192	-9.31
654.225	11.69
654.258	5.69
654.29	2.69
654.323	-1.31
654.356	-17.31
654.389	1.69
654.422	0.69
654.455	-11.31
654.488	16.69
654.521	-14.31
654.553	-6.31
654.586	0.69
654.619	1.69
654.652	-7.31
654.685	9.69
654.718	8.69
654.751	15.69
654.783	-1.31
654.816	26.69
654.849	-3.31
654.882	-6.31
654.915	-16.31
654.948	-0.31
654.98	-1.31
655.013	-0.31
655.046	-18.31
655.079	-20.31
655.112	15.69
655.144	-21.31
655.177	-5.31
655.21	-8.31
655.243	20.69
655.276	2.69
655.308	-1.31
655.341	-3.31
655.374	17.69
655.407	-7.31
655.44	-2.31
655.472	24.69
655.505	5.69
655.538	-17.31
655.571	-0.31
655.603	5.69
655.636	-5.31
655.669	-0.31
655.702	-2.31
655.734	-8.31
655.767	-29.31
655.8	0.69
655.833	10.69
655.865	-0.31
655.898	-14.31
655.931	0.69
655.964	-2.31
655.996	-1.31
656.029	10.69
656.062	-7.31
656.095	-15.31
656.127	-18.31
656.16	5.69
656.193	10.69
656.225	5.69
656.258	7.69
656.291	9.69
656.324	7.69
656.356	7.69
656.389	1.69
656.422	3.69
656.454	-6.31
656.487	15.69
656.52	8.69
656.552	-8.31
656.585	-2.31
656.618	21.69
656.65	13.69
656.683	-10.31
656.716	-3.31
656.748	6.69
656.781	4.69
656.814	1.69
656.846	0.69
656.879	0.69
656.912	15.69
656.944	-19.31
656.977	-14.31
657.01	2.69
657.042	18.69
657.075	-1.31
657.108	-0.31
657.14	8.69
657.173	18.69
657.205	25.69
657.238	5.69
657.271	18.69
657.303	-5.31
657.336	1.69
657.369	-1.31
657.401	-4.31
657.434	2.69
657.466	-0.31
657.499	7.69
657.532	-1.31
657.564	-4.31
657.597	-13.31
657.629	8.69
657.662	19.69
657.694	10.69
657.727	-21.31
657.76	2.69
657.792	-4.31
657.825	-4.31
657.857	-1.31
657.89	8.69
657.922	1.69
657.955	-10.31
657.987	-12.31
658.02	28.69
658.053	13.69
658.085	0.69
658.118	-0.31
658.15	17.69
658.183	-2.31
658.215	-0.31
658.248	-16.31
658.28	7.69
658.313	9.69
658.345	9.69
658.378	2.69
658.41	5.69
658.443	11.69
658.475	5.69
658.508	-2.31
658.54	0.69
658.573	-8.31
658.605	-8.31
658.638	1.69
658.67	-14.31
658.703	-3.31
658.735	-10.31
658.768	1.69
658.8	-12.31
658.833	5.69
658.865	11.69
658.898	7.69
658.93	-12.31
658.963	-1.31
658.995	-16.31
659.028	-2.31
659.06	-5.31
659.092	4.69
659.125	-11.31
659.157	-0.31
659.19	-10.31
659.222	-15.31
659.255	8.69
659.287	0.69
659.32	4.69
659.352	-7.31
659.384	14.69
659.417	-2.31
659.449	-1.31
659.482	8.69
659.514	-2.31
659.546	-2.31
659.579	-19.31
659.611	-11.31
659.644	-0.31
659.676	-3.31
659.708	-19.31
659.741	-16.31
659.773	1.69
659.806	-2.31
659.838	3.69
659.87	-0.31
659.903	-6.31
659.935	9.69
659.967	21.69
660	2.69
660.032	-26.31
660.065	0.69
660.097	7.69
660.129	-1.31
660.162	-15.31
660.194	10.69
660.226	-4.31
660.259	19.69
660.291	0.69
660.323	-8.31
660.356	-5.31
660.388	-7.31
660.42	-2.31
660.453	14.69
660.485	-2.31
660.517	6.69
660.55	8.69
660.582	-4.31
660.614	10.69
660.647	16.69
660.679	4.69
660.711	-2.31
660.743	-12.31
660.776	-0.31
660.808	-6.31
660.84	-9.31
660.873	2.69
660.905	5.69
660.937	2.69
660.969	6.69
661.002	6.69
661.034	18.69
661.066	6.69
661.099	-4.31
661.131	12.69
661.163	-0.31
661.195	8.69
661.228	23.69
661.26	5.69
661.292	-1.31
661.324	5.69
661.357	5.69
661.389	13.69
661.421	19.69
661.453	-2.31
661.485	9.69
661.518	6.69
661.55	-2.31
661.582	-15.31
661.614	-2.31
661.647	7.69
661.679	-2.31
661.711	11.69
661.743	4.69
661.775	4.69
661.808	22.69
661.84	0.69
661.872	6.69
661.904	-11.31
661.936	-13.31
661.969	-5.31
662.001	7.69
662.033	8.69
662.065	4.69
662.097	2.69
662.129	-3.31
662.162	-5.31
662.194	-2.31
662.226	4.69
662.258	4.69
662.29	-12.31
662.322	-5.31
662.355	-11.31
662.387	11.69
662.419	8.69
662.451	8.69
662.483	29.69
662.515	3.69
662.547	5.69
662.58	11.69
662.612	5.69
662.644	-15.31
662.676	-3.31
662.708	0.69
662.74	-14.31
662.772	-0.31
662.804	2.69
662.836	10.69
662.869	-1.31
662.901	12.69
662.933	0.69
662.965	22.69
662.997	-1.31
663.029	-4.31
663.061	4.69
663.093	3.69
663.125	2.69
663.157	1.69
663.189	-4.31
663.221	5.69
663.254	4.69
663.286	10.69
663.318	2.69
663.35	1.69
663.382	-4.31
663.414	-0.31
663.446	-9.31
663.478	0.69
663.51	7.69
663.542	-5.31
663.574	3.69
663.606	3.69
663.638	-8.31
663.67	5.69
663.702	6.69
663.734	-14.31
663.766	-0.31
663.798	-5.31
663.83	-5.31
663.862	-5.31
663.894	10.69
663.926	5.69
663.958	13.69
663.99	6.69
664.022	-18.31
664.054	11.69
664.086	-17.31
664.118	-10.31
664.15	-9.31
664.182	2.69
664.214	-10.31
664.246	-5.31
664.278	10.69
664.31	3.69
664.342	-8.31
664.374	-2.31
664.406	-2.31
664.438	-17.31
664.47	5.69
664.502	0.69
664.534	5.69
664.566	-10.31
664.598	-1.31
664.63	-8.31
664.662	-5.31
664.693	6.69
664.725	-5.31
664.757	-1.31
664.789	-4.31
664.821	5.69
664.853	12.69
664.885	0.69
664.917	0.69
664.949	10.69
664.981	5.69
665.013	-10.31
665.045	-19.31
665.076	-6.31
665.108	-6.31
665.14	4.69
665.172	4.69
665.204	3.69
665.236	-3.31
665.268	8.69
665.3	-11.31
665.331	-13.31
665.363	6.69
665.395	0.69
665.427	-2.31
665.459	-3.31
665.491	-11.31
665.523	-1.31
665.555	-2.31
665.586	15.69
665.618	-7.31
665.65	-3.31
665.682	-6.31
665.714	-3.31
665.746	0.69
665.777	14.69
665.809	-0.31
665.841	9.69
665.873	0.69
665.905	9.69
665.937	24.69
665.968	9.69
666	8.69
666.032	7.69
666.064	-2.31
666.096	3.69
666.127	-1.31
666.159	-3.31
666.191	15.69
666.223	-0.31
666.255	8.69
666.286	-0.31
666.318	-6.31
666.35	1.69
666.382	7.69
666.413	10.69
666.445	-26.31
666.477	-23.31
666.509	-3.31
666.54	3.69
666.572	0.69
666.604	6.69
666.636	-3.31
666.667	21.69
666.699	13.69
666.731	6.69
666.763	-9.31
666.794	-0.31
666.826	-9.31
666.858	-12.31
666.89	3.69
666.921	12.69
666.953	7.69
666.985	11.69
667.017	14.69
667.048	-6.31
667.08	-9.31
667.112	-0.31
667.143	-16.31
667.175	19.69
667.207	-8.31
667.238	1.69
667.27	6.69
667.302	5.69
667.334	-6.31
667.365	16.69
667.397	-1.31
667.429	4.69
667.46	1.69
667.492	3.69
667.524	-9.31
667.555	-5.31
667.587	7.69
667.619	-1.31
667.65	-15.31
667.682	8.69
667.714	10.69
667.745	2.69
667.777	0.69
667.808	-7.31
667.84	-8.31
667.872	-4.31
667.903	23.69
667.935	-14.31
667.967	-13.31
667.998	-2.31
668.03	-9.31
668.061	12.69
668.093	8.69
668.125	16.69
668.156	11.69
668.188	-11.31
668.22	-12.31
668.251	15.69
668.283	6.69
668.314	7.69
668.346	2.69
668.377	21.69
668.409	7.69
668.441	10.69
668.472	8.69
668.504	18.69
668.535	11.69
668.567	17.69
668.599	-2.31
668.63	-4.31
668.662	18.69
668.693	20.69
668.725	4.69
668.756	4.69
668.788	3.69
668.819	8.69
668.851	-0.31
668.882	-9.31
668.914	-4.31
668.946	-10.31
668.977	-1.31
669.009	-3.31
669.04	-1.31
669.072	3.69
669.103	3.69
669.135	-7.31
669.166	3.69
669.198	-6.31
669.229	-4.31
669.261	-7.31
669.292	-6.31
669.324	4.69
669.355	-1.31
669.387	-12.31
669.418	12.69
669.45	1.69
669.481	0.69
669.513	-3.31
669.544	5.69
669.576	6.69
669.607	-11.31
669.639	8.69
669.67	-16.31
669.701	12.69
669.733	-11.31
669.764	-17.31
669.796	12.69
669.827	-3.31
669.859	0.69
669.89	1.69
669.922	5.69
669.953	5.69
669.985	13.69
670.016	8.69
670.047	3.69
670.079	-9.31
670.11	-5.31
670.142	-7.31
670.173	2.69
670.204	7.69
670.236	-2.31
670.267	-4.31
670.299	-11.31
670.33	11.69
670.362	13.69
670.393	-4.31
670.424	4.69
670.456	0.69
670.487	7.69
670.518	4.69
670.55	-9.31
670.581	6.69
670.613	12.69
670.644	-13.31
670.675	-2.31
670.707	5.69
670.738	-10.31
670.769	-1.31
670.801	-7.31
670.832	4.69
670.864	-13.31
670.895	21.69
670.926	-4.31
670.958	-4.31
670.989	6.69
671.02	-5.31
671.052	-1.31
671.083	8.69
671.114	-1.31
671.146	2.69
671.177	13.69
671.208	-1.31
671.24	-11.31
671.271	-7.31
671.302	10.69
671.333	1.69
671.365	-10.31
671.396	-10.31
671.427	6.69
671.459	5.69
671.49	-5.31
671.521	-2.31
671.553	6.69
671.584	4.69
671.615	2.69
671.646	19.69
671.678	-2.31
671.709	0.69
671.74	-2.31
671.771	-12.31
671.803	-19.31
671.834	-6.31
671.865	-1.31
671.896	1.69
671.928	-4.31
671.959	-12.31
671.99	-4.31
672.021	-6.31
672.053	-3.31
672.084	14.69
672.115	1.69
672.146	-0.31
672.178	-16.31
672.209	10.69
672.24	7.69
672.271	17.69
672.303	0.69
672.334	-6.31
672.365	0.69
672.396	2.69
672.427	0.69
672.459	11.69
672.49	21.69
672.521	9.69
672.552	11.69
672.583	-7.31
672.615	-0.31
672.646	11.69
672.677	-12.31
672.708	-11.31
672.739	-0.31
672.77	18.69
672.802	1.69
672.833	-8.31
672.864	-11.31
672.895	-1.31
672.926	-15.31
672.957	-24.31
672.989	-2.31
673.02	-7.31
673.051	13.69
673.082	3.69
673.113	0.69
673.144	1.69
673.175	0.69
673.206	-1.31
673.238	-4.31
673.269	0.69
673.3	-10.31
673.331	7.69
673.362	-18.31
673.393	-2.31
673.424	-0.31
673.455	24.69
673.487	7.69
673.518	-2.31
673.549	2.69
673.58	2.69
673.611	2.69
673.642	20.69
673.673	-21.31
673.704	5.69
673.735	-5.31
673.766	0.69
673.797	-9.31
673.828	-7.31
673.86	-10.31
673.891	-14.31
673.922	-15.31
673.953	-11.31
673.984	1.69
674.015	3.69
674.046	-10.31
674.077	-12.31
674.108	0.69
674.139	0.69
674.17	-9.31
674.201	-9.31
674.232	-5.31
674.263	3.69
674.294	-0.31
674.325	1.69
674.356	-5.31
674.387	5.69
674.418	15.69
674.449	-4.31
674.48	-2.31
674.511	2.69
674.542	-0.31
674.573	-13.31
674.604	3.69
674.635	4.69
674.666	6.69
674.697	-3.31
674.728	4.69
674.759	2.69
674.79	-10.31
674.821	-9.31
674.852	-7.31
674.883	-12.31
674.914	-4.31
674.945	-13.31
674.976	-4.31
675.007	-6.31
675.038	-6.31
675.069	-15.31
675.1	-3.31
675.131	17.69
675.162	-2.31
675.193	-6.31
675.224	-3.31
675.254	-0.31
675.285	15.69
675.316	10.69
675.347	-17.31
675.378	-24.31
675.409	-3.31
675.44	15.69
675.471	0.69
675.502	-15.31
675.533	2.69
675.564	1.69
675.595	-3.31
675.625	24.69
675.656	17.69
675.687	5.69
675.718	-10.31
675.749	23.69
675.78	8.69
675.811	-17.31
675.842	10.69
675.873	5.69
675.903	-7.31
675.934	-0.31
675.965	-1.31
675.996	-11.31
676.027	-2.31
676.058	-11.31
676.089	-13.31
676.119	2.69
676.15	0.69
676.181	3.69
676.212	-0.31
676.243	13.69
676.274	10.69
676.304	20.69
676.335	-10.31
676.366	-6.31
676.397	-2.31
676.428	-8.31
676.459	8.69
676.489	4.69
676.52	5.69
676.551	1.69
676.582	-3.31
676.613	6.69
676.643	-4.31
676.674	20.69
676.705	6.69
676.736	3.69
676.767	9.69
676.797	5.69
676.828	-8.31
676.859	5.69
676.89	0.69
676.92	4.69
676.951	8.69
676.982	7.69
677.013	7.69
677.044	18.69
677.074	19.69
677.105	-1.31
677.136	13.69
677.167	0.69
677.197	17.69
677.228	-11.31
677.259	-13.31
677.289	-4.31
677.32	-0.31
677.351	-1.31
677.382	-6.31
677.412	7.69
677.443	-2.31
677.474	3.69
677.505	-21.31
677.535	-9.31
677.566	6.69
677.597	-7.31
677.627	2.69
677.658	-6.31
677.689	-5.31
677.72	0.69
677.75	-17.31
677.781	10.69
677.812	3.69
677.842	8.69
677.873	2.69
677.904	11.69
677.934	8.69
677.965	0.69
677.996	-17.31
678.026	-0.31
678.057	-6.31
678.088	-23.31
678.118	0.69
678.149	-16.31
678.18	-22.31
678.21	-0.31
678.241	-8.31
678.272	-2.31
678.302	-0.31
678.333	3.69
678.363	2.69
678.394	-10.31
678.425	6.69
678.455	9.69
678.486	5.69
678.517	4.69
678.547	-2.31
678.578	-6.31
678.608	-24.31
678.639	5.69
678.67	13.69
678.7	-4.31
678.731	2.69
678.761	-3.31
678.792	4.69
678.823	9.69
678.853	6.69
678.884	-11.31
678.914	0.69
678.945	-1.31
678.975	-10.31
679.006	0.69
679.037	3.69
679.067	7.69
679.098	-10.31
679.128	-9.31
679.159	-11.31
679.189	3.69
679.22	-18.31
679.25	-3.31
679.281	-17.31
679.312	-3.31
679.342	-2.31
679.373	11.69
679.403	11.69
679.434	-2.31
679.464	0.69
679.495	13.69
679.525	1.69
679.556	-7.31
679.586	-3.31
679.617	3.69
679.647	16.69
679.678	2.69
679.708	3.69
679.739	11.69
679.769	2.69
679.8	-10.31
679.83	-23.31
679.861	0.69
679.891	-2.31
679.922	-15.31
679.952	10.69
679.983	8.69
680.013	8.69
680.044	-2.31
680.074	1.69
680.105	2.69
680.135	6.69
680.165	3.69
680.196	15.69
680.226	10.69
680.257	9.69
680.287	2.69
680.318	14.69
680.348	-8.31
680.379	17.69
680.409	17.69
680.439	-13.31
680.47	-0.31
680.5	7.69
680.531	15.69
680.561	23.69
680.592	13.69
680.622	12.69
680.652	1.69
680.683	25.69
680.713	-11.31
680.744	-5.31
680.774	-6.31
680.804	11.69
680.835	-0.31
680.865	-8.31
680.896	17.69
680.926	-6.31
680.956	5.69
680.987	10.69
681.017	-6.31
681.047	0.69
681.078	-25.31
681.108	-2.31
681.139	1.69
681.169	5.69
681.199	-9.31
681.23	2.69
681.26	1.69
681.29	0.69
681.321	-9.31
681.351	3.69
681.381	-17.31
681.412	3.69
681.442	3.69
681.472	8.69
681.503	6.69
681.533	3.69
681.563	-12.31
681.594	-0.31
681.624	18.69
681.654	-0.31
681.685	-4.31
681.715	-3.31
681.745	-8.31
681.775	-30.31
681.806	5.69
681.836	17.69
681.866	-12.31
681.897	-4.31
681.927	18.69
681.957	-19.31
681.987	18.69
682.018	0.69
682.048	11.69
682.078	1.69
682.109	11.69
682.139	19.69
682.169	-7.31
682.199	-8.31
682.23	-6.31
682.26	-9.31
682.29	-11.31
682.32	-5.31
682.351	9.69
682.381	-7.31
682.411	1.69
682.441	2.69
682.472	-8.31
682.502	1.69
682.532	1.69
