Data from HighRes_mercury_15_13_11_07_2024_HR4C61891__77__15-14-30-886.txt Node

Date: Thu Nov 07 15:14:30 EST 2024
User: crc00042
Spectrometer: HR4C6189
Trigger mode: 4
Integration Time (sec): 1.000000E-1
Scans to average: 1
Electric dark correction enabled: true
Nonlinearity correction enabled: false
Boxcar width: 0
XAxis mode: Wavelengths
Number of Pixels in Spectrum: 3648
>>>>>Begin Spectral Data<<<<<
639.567	-82.69
639.602	-82.69
639.636	-82.69
639.67	-41.69
639.704	-32.69
639.738	0.31
639.773	8.31
639.807	-8.69
639.841	-3.69
639.875	24.31
639.909	13.31
639.943	-5.69
639.978	-8.69
640.012	-6.69
640.046	-15.69
640.08	12.31
640.114	-0.69
640.148	-8.69
640.182	-14.69
640.217	-17.69
640.251	3.31
640.285	14.31
640.319	-18.69
640.353	3.31
640.387	-1.69
640.421	-6.69
640.455	-3.69
640.49	1.31
640.524	-7.69
640.558	10.31
640.592	-0.69
640.626	13.31
640.66	11.31
640.694	-4.69
640.728	-0.69
640.762	21.31
640.796	10.31
640.83	16.31
640.865	1.31
640.899	-6.69
640.933	-8.69
640.967	-5.69
641.001	0.31
641.035	-8.69
641.069	-1.69
641.103	-10.69
641.137	4.31
641.171	-11.69
641.205	8.31
641.239	-2.69
641.273	12.31
641.307	18.31
641.341	-3.69
641.375	-12.69
641.409	-1.69
641.443	-0.69
641.477	8.31
641.511	3.31
641.545	6.31
641.579	-5.69
641.614	-0.69
641.648	-2.69
641.682	-8.69
641.716	19.31
641.75	11.31
641.784	-0.69
641.818	-12.69
641.852	-4.69
641.886	-5.69
641.919	14.31
641.953	-8.69
641.987	-8.69
642.021	-0.69
642.055	-10.69
642.089	-3.69
642.123	-2.69
642.157	-12.69
642.191	-10.69
642.225	-6.69
642.259	-3.69
642.293	5.31
642.327	-3.69
642.361	15.31
642.395	6.31
642.429	13.31
642.463	1.31
642.497	1.31
642.531	3.31
642.565	-21.69
642.599	3.31
642.633	-17.69
642.666	12.31
642.7	14.31
642.734	9.31
642.768	-12.69
642.802	11.31
642.836	6.31
642.87	-0.69
642.904	16.31
642.938	3.31
642.972	-4.69
643.005	-9.69
643.039	18.31
643.073	-9.69
643.107	1.31
643.141	-4.69
643.175	-9.69
643.209	-4.69
643.243	-7.69
643.276	4.31
643.31	0.31
643.344	2.31
643.378	-4.69
643.412	8.31
643.446	9.31
643.48	-21.69
643.513	-7.69
643.547	4.31
643.581	-4.69
643.615	-4.69
643.649	-8.69
643.683	-2.69
643.716	-17.69
643.75	-5.69
643.784	-20.69
643.818	7.31
643.852	-4.69
643.886	-9.69
643.919	-3.69
643.953	2.31
643.987	-1.69
644.021	6.31
644.055	9.31
644.088	-18.69
644.122	-13.69
644.156	-2.69
644.19	-5.69
644.224	11.31
644.257	0.31
644.291	5.31
644.325	4.31
644.359	-7.69
644.392	17.31
644.426	8.31
644.46	-10.69
644.494	0.31
644.527	-14.69
644.561	-14.69
644.595	-17.69
644.629	-16.69
644.662	-25.69
644.696	12.31
644.73	-12.69
644.764	-11.69
644.797	-6.69
644.831	-6.69
644.865	2.31
644.899	-2.69
644.932	10.31
644.966	-2.69
645	14.31
645.033	21.31
645.067	-13.69
645.101	-1.69
645.135	-8.69
645.168	-10.69
645.202	8.31
645.236	-8.69
645.269	8.31
645.303	-3.69
645.337	-2.69
645.37	-1.69
645.404	11.31
645.438	16.31
645.471	-8.69
645.505	4.31
645.539	2.31
645.572	-12.69
645.606	-3.69
645.64	2.31
645.673	-2.69
645.707	6.31
645.741	-10.69
645.774	-13.69
645.808	2.31
645.842	-7.69
645.875	5.31
645.909	-7.69
645.943	-7.69
645.976	1.31
646.01	3.31
646.043	25.31
646.077	9.31
646.111	4.31
646.144	8.31
646.178	7.31
646.212	2.31
646.245	-14.69
646.279	-5.69
646.312	-3.69
646.346	15.31
646.38	-17.69
646.413	6.31
646.447	16.31
646.48	4.31
646.514	18.31
646.547	-15.69
646.581	-11.69
646.615	-15.69
646.648	-5.69
646.682	-3.69
646.715	-5.69
646.749	-0.69
646.782	0.31
646.816	-2.69
646.85	-2.69
646.883	-0.69
646.917	9.31
646.95	-19.69
646.984	-13.69
647.017	-3.69
647.051	2.31
647.084	2.31
647.118	-14.69
647.151	-17.69
647.185	-7.69
647.218	-26.69
647.252	-9.69
647.285	-20.69
647.319	-6.69
647.353	-7.69
647.386	4.31
647.42	13.31
647.453	-16.69
647.487	0.31
647.52	11.31
647.553	10.31
647.587	1.31
647.62	9.31
647.654	-5.69
647.687	6.31
647.721	1.31
647.754	13.31
647.788	-3.69
647.821	-5.69
647.855	-2.69
647.888	5.31
647.922	13.31
647.955	2.31
647.989	5.31
648.022	4.31
648.055	-1.69
648.089	3.31
648.122	22.31
648.156	-8.69
648.189	3.31
648.223	-4.69
648.256	6.31
648.29	-3.69
648.323	-9.69
648.356	21.31
648.39	-8.69
648.423	-7.69
648.457	-15.69
648.49	11.31
648.523	10.31
648.557	-10.69
648.59	3.31
648.624	5.31
648.657	18.31
648.69	8.31
648.724	6.31
648.757	5.31
648.791	10.31
648.824	0.31
648.857	17.31
648.891	7.31
648.924	-0.69
648.957	-0.69
648.991	8.31
649.024	-0.69
649.057	1.31
649.091	2.31
649.124	15.31
649.158	21.31
649.191	13.31
649.224	2.31
649.258	4.31
649.291	3.31
649.324	4.31
649.358	-4.69
649.391	18.31
649.424	12.31
649.458	-8.69
649.491	6.31
649.524	-13.69
649.557	-22.69
649.591	-4.69
649.624	-2.69
649.657	-22.69
649.691	-5.69
649.724	8.31
649.757	-1.69
649.791	-1.69
649.824	14.31
649.857	9.31
649.89	4.31
649.924	-14.69
649.957	-11.69
649.99	-18.69
650.023	-6.69
650.057	-10.69
650.09	5.31
650.123	-1.69
650.157	6.31
650.19	13.31
650.223	-9.69
650.256	-31.69
650.29	-5.69
650.323	4.31
650.356	10.31
650.389	-9.69
650.423	-9.69
650.456	-7.69
650.489	-8.69
650.522	-5.69
650.555	8.31
650.589	1.31
650.622	11.31
650.655	-5.69
650.688	-2.69
650.721	-9.69
650.755	4.31
650.788	-0.69
650.821	-1.69
650.854	-1.69
650.887	6.31
650.921	3.31
650.954	-23.69
650.987	3.31
651.02	-9.69
651.053	-1.69
651.087	-10.69
651.12	6.31
651.153	0.31
651.186	-7.69
651.219	-8.69
651.252	19.31
651.286	8.31
651.319	22.31
651.352	5.31
651.385	-4.69
651.418	-0.69
651.451	-2.69
651.484	1.31
651.518	-0.69
651.551	5.31
651.584	-8.69
651.617	8.31
651.65	-6.69
651.683	18.31
651.716	-1.69
651.749	-13.69
651.783	-25.69
651.816	-19.69
651.849	-3.69
651.882	8.31
651.915	8.31
651.948	-11.69
651.981	-28.69
652.014	-19.69
652.047	-13.69
652.08	-2.69
652.114	5.31
652.147	-1.69
652.18	4.31
652.213	0.31
652.246	3.31
652.279	-7.69
652.312	-4.69
652.345	-2.69
652.378	-6.69
652.411	7.31
652.444	0.31
652.477	-15.69
652.51	-9.69
652.543	-20.69
652.576	6.31
652.609	3.31
652.642	-5.69
652.675	3.31
652.709	6.31
652.742	-14.69
652.775	-9.69
652.808	9.31
652.841	-1.69
652.874	6.31
652.907	-12.69
652.94	-1.69
652.973	-14.69
653.006	-9.69
653.039	-17.69
653.072	-11.69
653.105	-6.69
653.138	-19.69
653.171	-5.69
653.204	-4.69
653.237	0.31
653.27	-24.69
653.303	-7.69
653.336	-14.69
653.368	-15.69
653.401	11.31
653.434	-4.69
653.467	-3.69
653.5	-15.69
653.533	-4.69
653.566	1.31
653.599	2.31
653.632	18.31
653.665	6.31
653.698	-2.69
653.731	-20.69
653.764	12.31
653.797	0.31
653.83	-4.69
653.863	-2.69
653.896	-4.69
653.929	2.31
653.961	-3.69
653.994	-9.69
654.027	-0.69
654.06	10.31
654.093	2.31
654.126	9.31
654.159	-10.69
654.192	-2.69
654.225	-12.69
654.258	-14.69
654.29	-11.69
654.323	2.31
654.356	-15.69
654.389	-1.69
654.422	0.31
654.455	-10.69
654.488	-8.69
654.521	-16.69
654.553	-1.69
654.586	7.31
654.619	8.31
654.652	-10.69
654.685	-0.69
654.718	-3.69
654.751	-1.69
654.783	-9.69
654.816	13.31
654.849	-4.69
654.882	-0.69
654.915	-11.69
654.948	2.31
654.98	-5.69
655.013	-11.69
655.046	-22.69
655.079	-4.69
655.112	5.31
655.144	-1.69
655.177	-5.69
655.21	1.31
655.243	17.31
655.276	-9.69
655.308	-12.69
655.341	-26.69
655.374	1.31
655.407	-6.69
655.44	-3.69
655.472	6.31
655.505	-6.69
655.538	-13.69
655.571	10.31
655.603	2.31
655.636	-4.69
655.669	6.31
655.702	4.31
655.734	-21.69
655.767	4.31
655.8	-0.69
655.833	-7.69
655.865	8.31
655.898	0.31
655.931	-7.69
655.964	4.31
655.996	-8.69
656.029	-5.69
656.062	-7.69
656.095	-7.69
656.127	-20.69
656.16	-3.69
656.193	1.31
656.225	-10.69
656.258	-8.69
656.291	-0.69
656.324	-0.69
656.356	9.31
656.389	-11.69
656.422	-4.69
656.454	-9.69
656.487	9.31
656.52	0.31
656.552	-20.69
656.585	-3.69
656.618	21.31
656.65	14.31
656.683	-5.69
656.716	6.31
656.748	6.31
656.781	-10.69
656.814	-5.69
656.846	20.31
656.879	-11.69
656.912	5.31
656.944	-13.69
656.977	-8.69
657.01	-0.69
657.042	5.31
657.075	12.31
657.108	-4.69
657.14	16.31
657.173	12.31
657.205	23.31
657.238	7.31
657.271	9.31
657.303	-5.69
657.336	-4.69
657.369	7.31
657.401	0.31
657.434	-6.69
657.466	1.31
657.499	2.31
657.532	4.31
657.564	11.31
657.597	0.31
657.629	15.31
657.662	4.31
657.694	-2.69
657.727	-21.69
657.76	2.31
657.792	-5.69
657.825	-10.69
657.857	-3.69
657.89	-0.69
657.922	13.31
657.955	-9.69
657.987	3.31
658.02	5.31
658.053	-4.69
658.085	-3.69
658.118	-2.69
658.15	7.31
658.183	8.31
658.215	4.31
658.248	4.31
658.28	-13.69
658.313	9.31
658.345	2.31
658.378	3.31
658.41	0.31
658.443	-5.69
658.475	-7.69
658.508	-8.69
658.54	-3.69
658.573	-15.69
658.605	-5.69
658.638	-4.69
658.67	-1.69
658.703	7.31
658.735	-12.69
658.768	5.31
658.8	-22.69
658.833	30.31
658.865	6.31
658.898	-0.69
658.93	-8.69
658.963	-5.69
658.995	-20.69
659.028	-4.69
659.06	1.31
659.092	-3.69
659.125	-14.69
659.157	-2.69
659.19	-5.69
659.222	0.31
659.255	-11.69
659.287	-11.69
659.32	-5.69
659.352	3.31
659.384	-18.69
659.417	-18.69
659.449	8.31
659.482	-5.69
659.514	-8.69
659.546	-4.69
659.579	-6.69
659.611	15.31
659.644	-5.69
659.676	-25.69
659.708	-11.69
659.741	-18.69
659.773	7.31
659.806	-8.69
659.838	-4.69
659.87	-2.69
659.903	-17.69
659.935	-16.69
659.967	-9.69
660	3.31
660.032	-32.69
660.065	-1.69
660.097	-7.69
660.129	9.31
660.162	-8.69
660.194	9.31
660.226	-14.69
660.259	0.31
660.291	-12.69
660.323	-9.69
660.356	14.31
660.388	-9.69
660.42	-13.69
660.453	0.31
660.485	9.31
660.517	2.31
660.55	6.31
660.582	4.31
660.614	7.31
660.647	-7.69
660.679	-26.69
660.711	-0.69
660.743	-14.69
660.776	-15.69
660.808	-17.69
660.84	-19.69
660.873	-3.69
660.905	-1.69
660.937	10.31
660.969	-1.69
661.002	-3.69
661.034	15.31
661.066	2.31
661.099	8.31
661.131	19.31
661.163	8.31
661.195	-18.69
661.228	18.31
661.26	-9.69
661.292	5.31
661.324	3.31
661.357	21.31
661.389	15.31
661.421	1.31
661.453	1.31
661.485	15.31
661.518	-6.69
661.55	-11.69
661.582	-3.69
661.614	3.31
661.647	17.31
661.679	-3.69
661.711	-3.69
661.743	-12.69
661.775	-10.69
661.808	0.31
661.84	4.31
661.872	-14.69
661.904	-0.69
661.936	7.31
661.969	8.31
662.001	1.31
662.033	-12.69
662.065	-3.69
662.097	-2.69
662.129	8.31
662.162	-0.69
662.194	-0.69
662.226	11.31
662.258	8.31
662.29	4.31
662.322	-15.69
662.355	-16.69
662.387	12.31
662.419	7.31
662.451	2.31
662.483	8.31
662.515	-8.69
662.547	-14.69
662.58	-17.69
662.612	-13.69
662.644	-3.69
662.676	8.31
662.708	29.31
662.74	-0.69
662.772	-11.69
662.804	-15.69
662.836	-0.69
662.869	-13.69
662.901	3.31
662.933	-2.69
662.965	14.31
662.997	7.31
663.029	4.31
663.061	-5.69
663.093	-2.69
663.125	-1.69
663.157	3.31
663.189	17.31
663.221	-0.69
663.254	7.31
663.286	-0.69
663.318	-18.69
663.35	0.31
663.382	14.31
663.414	4.31
663.446	8.31
663.478	-5.69
663.51	23.31
663.542	-19.69
663.574	-3.69
663.606	-0.69
663.638	-26.69
663.67	-1.69
663.702	-7.69
663.734	-12.69
663.766	-1.69
663.798	-3.69
663.83	-3.69
663.862	-5.69
663.894	5.31
663.926	-1.69
663.958	13.31
663.99	0.31
664.022	-13.69
664.054	2.31
664.086	-23.69
664.118	-9.69
664.15	-16.69
664.182	5.31
664.214	-6.69
664.246	-1.69
664.278	0.31
664.31	13.31
664.342	0.31
664.374	-14.69
664.406	1.31
664.438	-16.69
664.47	14.31
664.502	2.31
664.534	-4.69
664.566	-17.69
664.598	12.31
664.63	-0.69
664.662	18.31
664.693	6.31
664.725	-8.69
664.757	-5.69
664.789	-18.69
664.821	6.31
664.853	18.31
664.885	6.31
664.917	8.31
664.949	9.31
664.981	4.31
665.013	-3.69
665.045	1.31
665.076	-6.69
665.108	-10.69
665.14	-6.69
665.172	-0.69
665.204	-0.69
665.236	-0.69
665.268	12.31
665.3	-15.69
665.331	-2.69
665.363	4.31
665.395	-0.69
665.427	0.31
665.459	0.31
665.491	-2.69
665.523	-2.69
665.555	-12.69
665.586	-11.69
665.618	-19.69
665.65	-20.69
665.682	-0.69
665.714	0.31
665.746	-3.69
665.777	-6.69
665.809	2.31
665.841	6.31
665.873	-6.69
665.905	-3.69
665.937	-10.69
665.968	-0.69
666	1.31
666.032	6.31
666.064	-9.69
666.096	-14.69
666.127	-2.69
666.159	8.31
666.191	9.31
666.223	-8.69
666.255	-13.69
666.286	-3.69
666.318	-1.69
666.35	13.31
666.382	-3.69
666.413	-17.69
666.445	-2.69
666.477	-20.69
666.509	-13.69
666.54	0.31
666.572	-1.69
666.604	-0.69
666.636	1.31
666.667	9.31
666.699	14.31
666.731	-17.69
666.763	0.31
666.794	-14.69
666.826	1.31
666.858	-7.69
666.89	1.31
666.921	4.31
666.953	-5.69
666.985	8.31
667.017	-2.69
667.048	6.31
667.08	-6.69
667.112	-14.69
667.143	-3.69
667.175	10.31
667.207	-1.69
667.238	5.31
667.27	4.31
667.302	-11.69
667.334	-10.69
667.365	12.31
667.397	-2.69
667.429	-1.69
667.46	2.31
667.492	5.31
667.524	-2.69
667.555	-21.69
667.587	1.31
667.619	-5.69
667.65	-18.69
667.682	-2.69
667.714	-22.69
667.745	4.31
667.777	10.31
667.808	-0.69
667.84	-10.69
667.872	-20.69
667.903	6.31
667.935	-13.69
667.967	-1.69
667.998	-2.69
668.03	-2.69
668.061	4.31
668.093	-4.69
668.125	-6.69
668.156	11.31
668.188	-16.69
668.22	-8.69
668.251	3.31
668.283	7.31
668.314	8.31
668.346	-10.69
668.377	28.31
668.409	16.31
668.441	23.31
668.472	22.31
668.504	21.31
668.535	12.31
668.567	18.31
668.599	-6.69
668.63	-1.69
668.662	1.31
668.693	9.31
668.725	4.31
668.756	-4.69
668.788	-17.69
668.819	6.31
668.851	2.31
668.882	-2.69
668.914	0.31
668.946	-3.69
668.977	-7.69
669.009	1.31
669.04	-15.69
669.072	5.31
669.103	5.31
669.135	-12.69
669.166	-2.69
669.198	10.31
669.229	5.31
669.261	0.31
669.292	-3.69
669.324	5.31
669.355	-2.69
669.387	-8.69
669.418	11.31
669.45	-16.69
669.481	-6.69
669.513	-0.69
669.544	2.31
669.576	-4.69
669.607	6.31
669.639	18.31
669.67	-2.69
669.701	7.31
669.733	-8.69
669.764	-5.69
669.796	-26.69
669.827	-8.69
669.859	-5.69
669.89	-8.69
669.922	19.31
669.953	6.31
669.985	-9.69
670.016	14.31
670.047	4.31
670.079	8.31
670.11	-5.69
670.142	-8.69
670.173	-6.69
670.204	-5.69
670.236	8.31
670.267	-14.69
670.299	10.31
670.33	-2.69
670.362	6.31
670.393	-5.69
670.424	7.31
670.456	-8.69
670.487	-5.69
670.518	-15.69
670.55	-2.69
670.581	-4.69
670.613	-4.69
670.644	-11.69
670.675	-7.69
670.707	-0.69
670.738	4.31
670.769	-12.69
670.801	-13.69
670.832	-1.69
670.864	-23.69
670.895	4.31
670.926	7.31
670.958	-16.69
670.989	-12.69
671.02	-14.69
671.052	4.31
671.083	0.31
671.114	-1.69
671.146	13.31
671.177	7.31
671.208	-8.69
671.24	-9.69
671.271	0.31
671.302	6.31
671.333	-10.69
671.365	1.31
671.396	11.31
671.427	8.31
671.459	-2.69
671.49	-8.69
671.521	9.31
671.553	-3.69
671.584	7.31
671.615	-23.69
671.646	0.31
671.678	-3.69
671.709	-19.69
671.74	-27.69
671.771	-9.69
671.803	-22.69
671.834	-12.69
671.865	-24.69
671.896	-0.69
671.928	-2.69
671.959	-11.69
671.99	-5.69
672.021	-9.69
672.053	-8.69
672.084	13.31
672.115	2.31
672.146	-4.69
672.178	-13.69
672.209	1.31
672.24	-1.69
672.271	26.31
672.303	-6.69
672.334	-8.69
672.365	-3.69
672.396	18.31
672.427	13.31
672.459	8.31
672.49	14.31
672.521	-7.69
672.552	5.31
672.583	-2.69
672.615	-10.69
672.646	-1.69
672.677	-11.69
672.708	-9.69
672.739	4.31
672.77	3.31
672.802	-2.69
672.833	-1.69
672.864	-17.69
672.895	-4.69
672.926	-9.69
672.957	-6.69
672.989	-11.69
673.02	9.31
673.051	-16.69
673.082	1.31
673.113	-9.69
673.144	-10.69
673.175	-3.69
673.206	-12.69
673.238	-26.69
673.269	-2.69
673.3	-9.69
673.331	-5.69
673.362	4.31
673.393	2.31
673.424	-3.69
673.455	4.31
673.487	-4.69
673.518	8.31
673.549	7.31
673.58	6.31
673.611	-10.69
673.642	-14.69
673.673	-31.69
673.704	-4.69
673.735	0.31
673.766	-5.69
673.797	-11.69
673.828	-10.69
673.86	-11.69
673.891	-4.69
673.922	-15.69
673.953	2.31
673.984	2.31
674.015	6.31
674.046	-4.69
674.077	5.31
674.108	-5.69
674.139	-11.69
674.17	-1.69
674.201	-11.69
674.232	-17.69
674.263	1.31
674.294	17.31
674.325	-7.69
674.356	6.31
674.387	13.31
674.418	4.31
674.449	-21.69
674.48	-17.69
674.511	-1.69
674.542	-9.69
674.573	-18.69
674.604	10.31
674.635	6.31
674.666	24.31
674.697	0.31
674.728	-8.69
674.759	1.31
674.79	-33.69
674.821	-21.69
674.852	-19.69
674.883	-5.69
674.914	-2.69
674.945	1.31
674.976	10.31
675.007	-9.69
675.038	-0.69
675.069	-10.69
675.1	-2.69
675.131	-3.69
675.162	-17.69
675.193	-34.69
675.224	-10.69
675.254	-8.69
675.285	-1.69
675.316	7.31
675.347	-3.69
675.378	-6.69
675.409	-20.69
675.44	5.31
675.471	-11.69
675.502	-5.69
675.533	-4.69
675.564	0.31
675.595	-10.69
675.625	18.31
675.656	14.31
675.687	14.31
675.718	-8.69
675.749	5.31
675.78	-5.69
675.811	-0.69
675.842	-3.69
675.873	5.31
675.903	-6.69
675.934	-4.69
675.965	-5.69
675.996	-8.69
676.027	-1.69
676.058	-8.69
676.089	-14.69
676.119	-1.69
676.15	-4.69
676.181	-5.69
676.212	-1.69
676.243	1.31
676.274	-11.69
676.304	6.31
676.335	-2.69
676.366	-2.69
676.397	2.31
676.428	3.31
676.459	-15.69
676.489	-7.69
676.52	-6.69
676.551	-18.69
676.582	-14.69
676.613	-17.69
676.643	-21.69
676.674	-1.69
676.705	-4.69
676.736	16.31
676.767	7.31
676.797	8.31
676.828	6.31
676.859	-2.69
676.89	11.31
676.92	4.31
676.951	1.31
676.982	9.31
677.013	-16.69
677.044	12.31
677.074	22.31
677.105	7.31
677.136	2.31
677.167	-2.69
677.197	9.31
677.228	-13.69
677.259	6.31
677.289	15.31
677.32	-4.69
677.351	-17.69
677.382	-11.69
677.412	-11.69
677.443	10.31
677.474	-3.69
677.505	1.31
677.535	3.31
677.566	-6.69
677.597	-10.69
677.627	-15.69
677.658	-12.69
677.689	-16.69
677.72	-4.69
677.75	0.31
677.781	8.31
677.812	-4.69
677.842	-1.69
677.873	10.31
677.904	-6.69
677.934	-14.69
677.965	-0.69
677.996	-5.69
678.026	-3.69
678.057	3.31
678.088	-4.69
678.118	1.31
678.149	-11.69
678.18	-0.69
678.21	-1.69
678.241	3.31
678.272	-9.69
678.302	-6.69
678.333	-8.69
678.363	6.31
678.394	5.31
678.425	-0.69
678.455	-11.69
678.486	7.31
678.517	5.31
678.547	-5.69
678.578	-3.69
678.608	-7.69
678.639	-4.69
678.67	-1.69
678.7	-6.69
678.731	-6.69
678.761	-9.69
678.792	7.31
678.823	3.31
678.853	3.31
678.884	-21.69
678.914	3.31
678.945	-3.69
678.975	-12.69
679.006	10.31
679.037	10.31
679.067	7.31
679.098	-3.69
679.128	-4.69
679.159	-5.69
679.189	-2.69
679.22	1.31
679.25	2.31
679.281	7.31
679.312	-5.69
679.342	-9.69
679.373	19.31
679.403	2.31
679.434	10.31
679.464	-6.69
679.495	-6.69
679.525	2.31
679.556	-3.69
679.586	-0.69
679.617	-8.69
679.647	8.31
679.678	-1.69
679.708	-6.69
679.739	-13.69
679.769	-10.69
679.8	-10.69
679.83	6.31
679.861	10.31
679.891	-8.69
679.922	-12.69
679.952	-7.69
679.983	5.31
680.013	11.31
680.044	-1.69
680.074	-1.69
680.105	7.31
680.135	9.31
680.165	-5.69
680.196	20.31
680.226	9.31
680.257	-7.69
680.287	5.31
680.318	5.31
680.348	-15.69
680.379	8.31
680.409	-9.69
680.439	-14.69
680.47	6.31
680.5	-9.69
680.531	0.31
680.561	16.31
680.592	11.31
680.622	27.31
680.652	-3.69
680.683	11.31
680.713	-22.69
680.744	-17.69
680.774	-13.69
680.804	17.31
680.835	-24.69
680.865	-16.69
680.896	5.31
680.926	9.31
680.956	-5.69
680.987	8.31
681.017	7.31
681.047	0.31
681.078	-14.69
681.108	-9.69
681.139	-3.69
681.169	-3.69
681.199	-1.69
681.23	1.31
681.26	-7.69
681.29	-2.69
681.321	-15.69
681.351	2.31
681.381	-19.69
681.412	1.31
681.442	-6.69
681.472	18.31
681.503	8.31
681.533	2.31
681.563	-2.69
681.594	10.31
681.624	9.31
681.654	-1.69
681.685	-5.69
681.715	5.31
681.745	2.31
681.775	-17.69
681.806	-8.69
681.836	-4.69
681.866	-3.69
681.897	-4.69
681.927	1.31
681.957	-13.69
681.987	-3.69
682.018	-1.69
682.048	6.31
682.078	1.31
682.109	30.31
682.139	17.31
682.169	-8.69
682.199	-15.69
