Data from HighRes_mercury_15_13_11_07_2024_HR4C61891__33__15-14-26-486.txt Node

Date: Thu Nov 07 15:14:26 EST 2024
User: crc00042
Spectrometer: HR4C6189
Trigger mode: 4
Integration Time (sec): 1.000000E-1
Scans to average: 1
Electric dark correction enabled: true
Nonlinearity correction enabled: false
Boxcar width: 0
XAxis mode: Wavelengths
Number of Pixels in Spectrum: 3648
>>>>>Begin Spectral Data<<<<<
639.567	-48.38
639.602	-48.38
639.636	-48.38
639.67	-47.38
639.704	-21.38
639.738	-21.38
639.773	15.62
639.807	-9.38
639.841	8.62
639.875	10.62
639.909	-4.38
639.943	-1.38
639.978	-7.38
640.012	12.62
640.046	29.62
640.08	-5.38
640.114	-0.38
640.148	-27.38
640.182	-16.38
640.217	-8.38
640.251	18.62
640.285	12.62
640.319	-11.38
640.353	1.62
640.387	5.62
640.421	1.62
640.455	-0.38
640.49	-12.38
640.524	-4.38
640.558	6.62
640.592	-0.38
640.626	17.62
640.66	11.62
640.694	-8.38
640.728	1.62
640.762	-0.38
640.796	6.62
640.83	18.62
640.865	4.62
640.899	3.62
640.933	7.62
640.967	8.62
641.001	15.62
641.035	1.62
641.069	-9.38
641.103	-4.38
641.137	0.62
641.171	2.62
641.205	7.62
641.239	11.62
641.273	3.62
641.307	2.62
641.341	6.62
641.375	1.62
641.409	-6.38
641.443	1.62
641.477	11.62
641.511	17.62
641.545	0.62
641.579	5.62
641.614	16.62
641.648	20.62
641.682	-21.38
641.716	6.62
641.75	13.62
641.784	5.62
641.818	-5.38
641.852	3.62
641.886	2.62
641.919	14.62
641.953	-7.38
641.987	-24.38
642.021	-8.38
642.055	7.62
642.089	3.62
642.123	-15.38
642.157	5.62
642.191	10.62
642.225	5.62
642.259	0.62
642.293	-1.38
642.327	-1.38
642.361	-13.38
642.395	12.62
642.429	8.62
642.463	-3.38
642.497	22.62
642.531	2.62
642.565	4.62
642.599	8.62
642.633	9.62
642.666	6.62
642.7	2.62
642.734	16.62
642.768	-7.38
642.802	11.62
642.836	7.62
642.87	7.62
642.904	-5.38
642.938	14.62
642.972	-2.38
643.005	-2.38
643.039	15.62
643.073	11.62
643.107	0.62
643.141	8.62
643.175	3.62
643.209	-13.38
643.243	-1.38
643.276	3.62
643.31	2.62
643.344	-3.38
643.378	-7.38
643.412	0.62
643.446	-3.38
643.48	-11.38
643.513	24.62
643.547	5.62
643.581	-6.38
643.615	15.62
643.649	16.62
643.683	-15.38
643.716	0.62
643.75	-0.38
643.784	-14.38
643.818	3.62
643.852	3.62
643.886	5.62
643.919	4.62
643.953	1.62
643.987	3.62
644.021	10.62
644.055	6.62
644.088	1.62
644.122	1.62
644.156	-8.38
644.19	7.62
644.224	11.62
644.257	7.62
644.291	17.62
644.325	4.62
644.359	9.62
644.392	22.62
644.426	14.62
644.46	7.62
644.494	7.62
644.527	-1.38
644.561	0.62
644.595	-1.38
644.629	0.62
644.662	-6.38
644.696	8.62
644.73	-3.38
644.764	-5.38
644.797	-4.38
644.831	1.62
644.865	17.62
644.899	3.62
644.932	9.62
644.966	7.62
645	12.62
645.033	18.62
645.067	-7.38
645.101	-0.38
645.135	3.62
645.168	-0.38
645.202	4.62
645.236	6.62
645.269	8.62
645.303	-11.38
645.337	-19.38
645.37	-1.38
645.404	0.62
645.438	2.62
645.471	-2.38
645.505	3.62
645.539	-7.38
645.572	7.62
645.606	5.62
645.64	10.62
645.673	-1.38
645.707	20.62
645.741	0.62
645.774	-16.38
645.808	0.62
645.842	-2.38
645.875	5.62
645.909	0.62
645.943	6.62
645.976	-4.38
646.01	11.62
646.043	12.62
646.077	15.62
646.111	2.62
646.144	14.62
646.178	16.62
646.212	-11.38
646.245	1.62
646.279	5.62
646.312	3.62
646.346	-5.38
646.38	6.62
646.413	10.62
646.447	18.62
646.48	-9.38
646.514	3.62
646.547	11.62
646.581	5.62
646.615	6.62
646.648	4.62
646.682	-1.38
646.715	10.62
646.749	17.62
646.782	-4.38
646.816	-9.38
646.85	4.62
646.883	-0.38
646.917	3.62
646.95	4.62
646.984	10.62
647.017	-1.38
647.051	17.62
647.084	1.62
647.118	-4.38
647.151	0.62
647.185	3.62
647.218	-14.38
647.252	8.62
647.285	-9.38
647.319	-1.38
647.353	6.62
647.386	17.62
647.42	2.62
647.453	9.62
647.487	13.62
647.52	11.62
647.553	11.62
647.587	-5.38
647.62	-4.38
647.654	2.62
647.687	-14.38
647.721	12.62
647.754	3.62
647.788	18.62
647.821	-12.38
647.855	4.62
647.888	4.62
647.922	23.62
647.955	7.62
647.989	8.62
648.022	10.62
648.055	6.62
648.089	0.62
648.122	11.62
648.156	-5.38
648.189	1.62
648.223	14.62
648.256	26.62
648.29	3.62
648.323	-8.38
648.356	5.62
648.39	4.62
648.423	-2.38
648.457	2.62
648.49	8.62
648.523	17.62
648.557	-7.38
648.59	-0.38
648.624	4.62
648.657	4.62
648.69	21.62
648.724	10.62
648.757	4.62
648.791	20.62
648.824	12.62
648.857	21.62
648.891	4.62
648.924	6.62
648.957	22.62
648.991	-1.38
649.024	12.62
649.057	15.62
649.091	4.62
649.124	6.62
649.158	4.62
649.191	18.62
649.224	10.62
649.258	2.62
649.291	8.62
649.324	1.62
649.358	14.62
649.391	19.62
649.424	5.62
649.458	12.62
649.491	10.62
649.524	-2.38
649.557	-14.38
649.591	2.62
649.624	7.62
649.657	-2.38
649.691	-0.38
649.724	4.62
649.757	4.62
649.791	-10.38
649.824	11.62
649.857	23.62
649.89	8.62
649.924	-6.38
649.957	-8.38
649.99	-18.38
650.023	-8.38
650.057	-16.38
650.09	3.62
650.123	2.62
650.157	11.62
650.19	1.62
650.223	-6.38
650.256	0.62
650.29	-4.38
650.323	0.62
650.356	26.62
650.389	3.62
650.423	0.62
650.456	-1.38
650.489	-2.38
650.522	-4.38
650.555	7.62
650.589	5.62
650.622	-4.38
650.655	-3.38
650.688	6.62
650.721	-4.38
650.755	-8.38
650.788	14.62
650.821	12.62
650.854	-13.38
650.887	-0.38
650.921	6.62
650.954	3.62
650.987	4.62
651.02	-6.38
651.053	-1.38
651.087	1.62
651.12	31.62
651.153	20.62
651.186	-7.38
651.219	-12.38
651.252	15.62
651.286	7.62
651.319	-3.38
651.352	0.62
651.385	11.62
651.418	5.62
651.451	8.62
651.484	3.62
651.518	-15.38
651.551	30.62
651.584	-9.38
651.617	8.62
651.65	14.62
651.683	10.62
651.716	3.62
651.749	2.62
651.783	9.62
651.816	8.62
651.849	6.62
651.882	5.62
651.915	-0.38
651.948	17.62
651.981	-6.38
652.014	-11.38
652.047	-12.38
652.08	-20.38
652.114	12.62
652.147	-6.38
652.18	-3.38
652.213	25.62
652.246	12.62
652.279	2.62
652.312	14.62
652.345	5.62
652.378	18.62
652.411	4.62
652.444	10.62
652.477	-0.38
652.51	7.62
652.543	-8.38
652.576	13.62
652.609	2.62
652.642	4.62
652.675	19.62
652.709	-7.38
652.742	10.62
652.775	0.62
652.808	5.62
652.841	-7.38
652.874	-6.38
652.907	-2.38
652.94	5.62
652.973	-9.38
653.006	1.62
653.039	9.62
653.072	-4.38
653.105	6.62
653.138	-0.38
653.171	-11.38
653.204	-13.38
653.237	9.62
653.27	-6.38
653.303	5.62
653.336	-0.38
653.368	-3.38
653.401	-2.38
653.434	-13.38
653.467	0.62
653.5	-7.38
653.533	-15.38
653.566	9.62
653.599	15.62
653.632	-0.38
653.665	5.62
653.698	-13.38
653.731	-1.38
653.764	8.62
653.797	16.62
653.83	5.62
653.863	2.62
653.896	2.62
653.929	12.62
653.961	1.62
653.994	-7.38
654.027	-24.38
654.06	6.62
654.093	-1.38
654.126	19.62
654.159	-1.38
654.192	1.62
654.225	0.62
654.258	7.62
654.29	-6.38
654.323	11.62
654.356	3.62
654.389	-8.38
654.422	-3.38
654.455	10.62
654.488	-6.38
654.521	-20.38
654.553	-1.38
654.586	12.62
654.619	6.62
654.652	7.62
654.685	5.62
654.718	-4.38
654.751	2.62
654.783	-8.38
654.816	10.62
654.849	1.62
654.882	6.62
654.915	-7.38
654.948	5.62
654.98	3.62
655.013	5.62
655.046	-3.38
655.079	-2.38
655.112	9.62
655.144	-9.38
655.177	-7.38
655.21	12.62
655.243	10.62
655.276	8.62
655.308	-6.38
655.341	-1.38
655.374	16.62
655.407	-5.38
655.44	-4.38
655.472	15.62
655.505	9.62
655.538	-10.38
655.571	15.62
655.603	-1.38
655.636	8.62
655.669	7.62
655.702	-17.38
655.734	-14.38
655.767	-8.38
655.8	11.62
655.833	8.62
655.865	22.62
655.898	0.62
655.931	1.62
655.964	10.62
655.996	9.62
656.029	11.62
656.062	-0.38
656.095	4.62
656.127	-25.38
656.16	5.62
656.193	7.62
656.225	14.62
656.258	-3.38
656.291	1.62
656.324	7.62
656.356	17.62
656.389	16.62
656.422	24.62
656.454	-4.38
656.487	-11.38
656.52	18.62
656.552	16.62
656.585	15.62
656.618	4.62
656.65	0.62
656.683	-7.38
656.716	3.62
656.748	3.62
656.781	-2.38
656.814	-24.38
656.846	10.62
656.879	0.62
656.912	-1.38
656.944	-11.38
656.977	-17.38
657.01	-18.38
657.042	0.62
657.075	4.62
657.108	-2.38
657.14	6.62
657.173	9.62
657.205	19.62
657.238	11.62
657.271	10.62
657.303	-8.38
657.336	8.62
657.369	-4.38
657.401	10.62
657.434	-0.38
657.466	-8.38
657.499	-6.38
657.532	-2.38
657.564	-1.38
657.597	1.62
657.629	-11.38
657.662	2.62
657.694	2.62
657.727	-12.38
657.76	23.62
657.792	-15.38
657.825	7.62
657.857	-3.38
657.89	-11.38
657.922	4.62
657.955	-13.38
657.987	4.62
658.02	-9.38
658.053	8.62
658.085	-6.38
658.118	2.62
658.15	4.62
658.183	21.62
658.215	8.62
658.248	-10.38
658.28	-6.38
658.313	13.62
658.345	3.62
658.378	-5.38
658.41	1.62
658.443	12.62
658.475	-2.38
658.508	-4.38
658.54	8.62
658.573	10.62
658.605	13.62
658.638	1.62
658.67	1.62
658.703	1.62
658.735	-1.38
658.768	-1.38
658.8	-2.38
658.833	31.62
658.865	12.62
658.898	14.62
658.93	-4.38
658.963	3.62
658.995	-7.38
659.028	12.62
659.06	2.62
659.092	-0.38
659.125	2.62
659.157	3.62
659.19	-10.38
659.222	0.62
659.255	7.62
659.287	-1.38
659.32	6.62
659.352	1.62
659.384	20.62
659.417	10.62
659.449	8.62
659.482	9.62
659.514	-3.38
659.546	6.62
659.579	-20.38
659.611	-19.38
659.644	-10.38
659.676	-10.38
659.708	5.62
659.741	1.62
659.773	7.62
659.806	8.62
659.838	10.62
659.87	-1.38
659.903	-8.38
659.935	15.62
659.967	6.62
660	4.62
660.032	-18.38
660.065	9.62
660.097	0.62
660.129	-0.38
660.162	-16.38
660.194	7.62
660.226	9.62
660.259	3.62
660.291	0.62
660.323	14.62
660.356	19.62
660.388	1.62
660.42	3.62
660.453	-1.38
660.485	9.62
660.517	9.62
660.55	5.62
660.582	4.62
660.614	15.62
660.647	-6.38
660.679	-20.38
660.711	14.62
660.743	-4.38
660.776	-11.38
660.808	3.62
660.84	8.62
660.873	7.62
660.905	-5.38
660.937	-1.38
660.969	-7.38
661.002	-14.38
661.034	5.62
661.066	-3.38
661.099	16.62
661.131	17.62
661.163	-6.38
661.195	-10.38
661.228	9.62
661.26	-1.38
661.292	-3.38
661.324	-2.38
661.357	1.62
661.389	-0.38
661.421	8.62
661.453	3.62
661.485	4.62
661.518	1.62
661.55	-14.38
661.582	-12.38
661.614	-4.38
661.647	-2.38
661.679	1.62
661.711	5.62
661.743	-21.38
661.775	-0.38
661.808	25.62
661.84	-17.38
661.872	7.62
661.904	-10.38
661.936	2.62
661.969	-8.38
662.001	10.62
662.033	12.62
662.065	0.62
662.097	26.62
662.129	16.62
662.162	-1.38
662.194	1.62
662.226	2.62
662.258	4.62
662.29	1.62
662.322	-4.38
662.355	-12.38
662.387	18.62
662.419	24.62
662.451	2.62
662.483	-0.38
662.515	4.62
662.547	-12.38
662.58	-21.38
662.612	-3.38
662.644	-13.38
662.676	-15.38
662.708	7.62
662.74	-6.38
662.772	4.62
662.804	14.62
662.836	18.62
662.869	-21.38
662.901	-8.38
662.933	-2.38
662.965	9.62
662.997	6.62
663.029	-5.38
663.061	3.62
663.093	2.62
663.125	11.62
663.157	-2.38
663.189	9.62
663.221	10.62
663.254	0.62
663.286	6.62
663.318	5.62
663.35	-9.38
663.382	11.62
663.414	3.62
663.446	-5.38
663.478	-7.38
663.51	15.62
663.542	-6.38
663.574	6.62
663.606	17.62
663.638	-11.38
663.67	9.62
663.702	-13.38
663.734	-2.38
663.766	4.62
663.798	-0.38
663.83	23.62
663.862	3.62
663.894	6.62
663.926	1.62
663.958	5.62
663.99	5.62
664.022	1.62
664.054	-0.38
664.086	-3.38
664.118	-5.38
664.15	-4.38
664.182	7.62
664.214	2.62
664.246	7.62
664.278	10.62
664.31	18.62
664.342	-3.38
664.374	0.62
664.406	-10.38
664.438	8.62
664.47	6.62
664.502	-12.38
664.534	-13.38
664.566	5.62
664.598	20.62
664.63	-6.38
664.662	-2.38
664.693	12.62
664.725	-4.38
664.757	-12.38
664.789	-16.38
664.821	7.62
664.853	12.62
664.885	-1.38
664.917	-2.38
664.949	7.62
664.981	4.62
665.013	12.62
665.045	-4.38
665.076	-8.38
665.108	2.62
665.14	-11.38
665.172	-9.38
665.204	1.62
665.236	1.62
665.268	22.62
665.3	3.62
665.331	-7.38
665.363	3.62
665.395	-7.38
665.427	3.62
665.459	18.62
665.491	-10.38
665.523	3.62
665.555	-17.38
665.586	-2.38
665.618	1.62
665.65	-16.38
665.682	5.62
665.714	13.62
665.746	-6.38
665.777	3.62
665.809	-7.38
665.841	15.62
665.873	4.62
665.905	-17.38
665.937	4.62
665.968	3.62
666	6.62
666.032	19.62
666.064	-19.38
666.096	-10.38
666.127	24.62
666.159	16.62
666.191	-3.38
666.223	-6.38
666.255	4.62
666.286	-11.38
666.318	-8.38
666.35	18.62
666.382	3.62
666.413	-16.38
666.445	-2.38
666.477	-18.38
666.509	-15.38
666.54	-6.38
666.572	-8.38
666.604	-4.38
666.636	3.62
666.667	29.62
666.699	23.62
666.731	8.62
666.763	-7.38
666.794	2.62
666.826	-2.38
666.858	-12.38
666.89	-4.38
666.921	18.62
666.953	-9.38
666.985	-7.38
667.017	17.62
667.048	2.62
667.08	10.62
667.112	16.62
667.143	-5.38
667.175	18.62
667.207	0.62
667.238	14.62
667.27	9.62
667.302	3.62
667.334	1.62
667.365	22.62
667.397	-1.38
667.429	-10.38
667.46	14.62
667.492	5.62
667.524	-11.38
667.555	-19.38
667.587	0.62
667.619	2.62
667.65	-8.38
667.682	10.62
667.714	6.62
667.745	-7.38
667.777	2.62
667.808	-3.38
667.84	-6.38
667.872	-11.38
667.903	21.62
667.935	3.62
667.967	3.62
667.998	9.62
668.03	-22.38
668.061	-1.38
668.093	6.62
668.125	16.62
668.156	3.62
668.188	-8.38
668.22	-12.38
668.251	2.62
668.283	8.62
668.314	24.62
668.346	14.62
668.377	25.62
668.409	0.62
668.441	23.62
668.472	14.62
668.504	15.62
668.535	17.62
668.567	8.62
668.599	-2.38
668.63	-9.38
668.662	-7.38
668.693	22.62
668.725	11.62
668.756	10.62
668.788	-9.38
668.819	-19.38
668.851	-1.38
668.882	-2.38
668.914	-9.38
668.946	12.62
668.977	-0.38
669.009	-15.38
669.04	-9.38
669.072	-1.38
669.103	4.62
669.135	1.62
669.166	9.62
669.198	0.62
669.229	-3.38
669.261	7.62
669.292	2.62
669.324	9.62
669.355	7.62
669.387	-13.38
669.418	2.62
669.45	-4.38
669.481	14.62
669.513	-2.38
669.544	4.62
669.576	2.62
669.607	10.62
669.639	9.62
669.67	-5.38
669.701	4.62
669.733	-9.38
669.764	-2.38
669.796	-9.38
669.827	-18.38
669.859	-7.38
669.89	9.62
669.922	15.62
669.953	2.62
669.985	0.62
670.016	9.62
670.047	9.62
670.079	0.62
670.11	10.62
670.142	-8.38
670.173	5.62
670.204	1.62
670.236	3.62
670.267	-0.38
670.299	-2.38
670.33	-1.38
670.362	7.62
670.393	-19.38
670.424	4.62
670.456	-12.38
670.487	-4.38
670.518	-2.38
670.55	2.62
670.581	-8.38
670.613	-9.38
670.644	-12.38
670.675	0.62
670.707	3.62
670.738	6.62
670.769	-3.38
670.801	2.62
670.832	8.62
670.864	-25.38
670.895	4.62
670.926	-0.38
670.958	-6.38
670.989	17.62
671.02	-1.38
671.052	-18.38
671.083	-3.38
671.114	-0.38
671.146	13.62
671.177	6.62
671.208	8.62
671.24	1.62
671.271	-1.38
671.302	10.62
671.333	-5.38
671.365	-0.38
671.396	-5.38
671.427	16.62
671.459	4.62
671.49	9.62
671.521	8.62
671.553	1.62
671.584	11.62
671.615	-7.38
671.646	0.62
671.678	0.62
671.709	-18.38
671.74	-20.38
671.771	-8.38
671.803	-4.38
671.834	0.62
671.865	-0.38
671.896	8.62
671.928	2.62
671.959	-4.38
671.99	-1.38
672.021	-1.38
672.053	-2.38
672.084	10.62
672.115	8.62
672.146	6.62
672.178	-22.38
672.209	0.62
672.24	-8.38
672.271	29.62
672.303	12.62
672.334	1.62
672.365	-14.38
672.396	-6.38
672.427	3.62
672.459	18.62
672.49	18.62
672.521	12.62
672.552	4.62
672.583	15.62
672.615	-4.38
672.646	5.62
672.677	-1.38
672.708	-10.38
672.739	-1.38
672.77	16.62
672.802	16.62
672.833	6.62
672.864	11.62
672.895	-4.38
672.926	1.62
672.957	-10.38
672.989	-0.38
673.02	8.62
673.051	-8.38
673.082	23.62
673.113	-4.38
673.144	-0.38
673.175	20.62
673.206	10.62
673.238	2.62
673.269	-4.38
673.3	-21.38
673.331	0.62
673.362	-4.38
673.393	7.62
673.424	8.62
673.455	15.62
673.487	-16.38
673.518	10.62
673.549	3.62
673.58	-8.38
673.611	4.62
673.642	14.62
673.673	-10.38
673.704	-1.38
673.735	-13.38
673.766	-4.38
673.797	-11.38
673.828	2.62
673.86	-0.38
673.891	-6.38
673.922	-13.38
673.953	6.62
673.984	10.62
674.015	4.62
674.046	2.62
674.077	12.62
674.108	-5.38
674.139	-3.38
674.17	2.62
674.201	-9.38
674.232	-12.38
674.263	-0.38
674.294	-26.38
674.325	0.62
674.356	2.62
674.387	22.62
674.418	7.62
674.449	-6.38
674.48	-13.38
674.511	2.62
674.542	-4.38
674.573	-5.38
674.604	16.62
674.635	-4.38
674.666	16.62
674.697	-2.38
674.728	4.62
674.759	5.62
674.79	-12.38
674.821	-9.38
674.852	-9.38
674.883	-0.38
674.914	-10.38
674.945	-7.38
674.976	-1.38
675.007	-15.38
675.038	7.62
675.069	-15.38
675.1	-1.38
675.131	1.62
675.162	4.62
675.193	-8.38
675.224	-6.38
675.254	1.62
675.285	-4.38
675.316	14.62
675.347	-4.38
675.378	-7.38
675.409	-14.38
675.44	9.62
675.471	8.62
675.502	-1.38
675.533	-2.38
675.564	2.62
675.595	-4.38
675.625	16.62
675.656	16.62
675.687	4.62
675.718	-1.38
675.749	7.62
675.78	3.62
675.811	3.62
675.842	-4.38
675.873	-4.38
675.903	3.62
675.934	6.62
675.965	11.62
675.996	-1.38
676.027	11.62
676.058	6.62
676.089	-4.38
676.119	2.62
676.15	-4.38
676.181	-10.38
676.212	-7.38
676.243	26.62
676.274	-2.38
676.304	9.62
676.335	5.62
676.366	10.62
676.397	5.62
676.428	-16.38
676.459	9.62
676.489	6.62
676.52	20.62
676.551	7.62
676.582	-2.38
676.613	-5.38
676.643	-5.38
676.674	14.62
676.705	0.62
676.736	-6.38
676.767	11.62
676.797	9.62
676.828	5.62
676.859	-6.38
676.89	-5.38
676.92	6.62
676.951	2.62
676.982	3.62
677.013	2.62
677.044	21.62
677.074	34.62
677.105	0.62
677.136	-3.38
677.167	1.62
677.197	29.62
677.228	13.62
677.259	-0.38
677.289	1.62
677.32	-9.38
677.351	-5.38
677.382	-1.38
677.412	-6.38
677.443	4.62
677.474	-2.38
677.505	-17.38
677.535	0.62
677.566	-6.38
677.597	5.62
677.627	2.62
677.658	-1.38
677.689	3.62
677.72	1.62
677.75	-15.38
677.781	7.62
677.812	-5.38
677.842	9.62
677.873	-1.38
677.904	13.62
677.934	3.62
677.965	-9.38
677.996	-5.38
678.026	9.62
678.057	15.62
678.088	-1.38
678.118	-7.38
678.149	-12.38
678.18	8.62
678.21	-1.38
678.241	11.62
678.272	3.62
678.302	3.62
678.333	8.62
678.363	8.62
678.394	-3.38
678.425	7.62
678.455	2.62
678.486	9.62
678.517	10.62
678.547	12.62
678.578	8.62
678.608	-6.38
678.639	11.62
678.67	3.62
678.7	-1.38
678.731	0.62
678.761	-7.38
678.792	-0.38
678.823	11.62
678.853	15.62
678.884	-2.38
678.914	12.62
678.945	-1.38
678.975	-4.38
679.006	8.62
679.037	1.62
679.067	18.62
679.098	-2.38
679.128	-9.38
679.159	1.62
679.189	7.62
679.22	-2.38
679.25	-2.38
679.281	-6.38
679.312	6.62
679.342	13.62
679.373	21.62
679.403	15.62
679.434	2.62
679.464	1.62
679.495	5.62
679.525	7.62
679.556	-13.38
679.586	6.62
679.617	8.62
679.647	2.62
679.678	-14.38
679.708	-6.38
679.739	25.62
679.769	-0.38
679.8	-15.38
679.83	-11.38
679.861	19.62
679.891	0.62
679.922	-7.38
679.952	8.62
679.983	5.62
680.013	11.62
680.044	-13.38
680.074	14.62
680.105	1.62
680.135	6.62
680.165	19.62
680.196	16.62
680.226	2.62
680.257	4.62
680.287	7.62
680.318	-2.38
680.348	-6.38
680.379	16.62
680.409	6.62
680.439	4.62
680.47	2.62
680.5	3.62
680.531	-3.38
680.561	14.62
680.592	20.62
680.622	32.62
680.652	2.62
680.683	-0.38
680.713	-4.38
680.744	-14.38
680.774	-1.38
680.804	35.62
680.835	3.62
680.865	-4.38
680.896	15.62
680.926	5.62
680.956	-7.38
680.987	1.62
681.017	-2.38
681.047	14.62
681.078	-6.38
681.108	3.62
681.139	-4.38
681.169	-0.38
681.199	8.62
681.23	9.62
681.26	-3.38
681.29	6.62
681.321	-0.38
681.351	6.62
681.381	-11.38
681.412	-9.38
681.442	-6.38
681.472	7.62
681.503	6.62
681.533	12.62
681.563	20.62
681.594	12.62
681.624	20.62
681.654	-17.38
681.685	-6.38
681.715	-10.38
681.745	-11.38
681.775	-1.38
681.806	-3.38
681.836	-4.38
681.866	-17.38
681.897	-1.38
681.927	10.62
681.957	-29.38
681.987	1.62
682.018	-1.38
682.048	7.62
682.078	-5.38
682.109	10.62
682.139	8.62
682.169	12.62
682.199	1.62
682.23	-16.38
682.26	15.62
682.29	6.62
682.32	0.62
682.351	4.62
682.381	7.62
682.411	1.62
682.441	-0.38
682.472	0.62
682.502	-9.38
682.532	-9.38
682.562	6.62
682.592	2.62
682.623	10.62
682.653	8.62
682.683	-20.38
682.713	1.62
