Data from HighRes_mercury_15_13_11_07_2024_HR4C61891__24__15-14-25-586.txt Node

Date: Thu Nov 07 15:14:25 EST 2024
User: crc00042
Spectrometer: HR4C6189
Trigger mode: 4
Integration Time (sec): 1.000000E-1
Scans to average: 1
Electric dark correction enabled: true
Nonlinearity correction enabled: false
Boxcar width: 0
XAxis mode: Wavelengths
Number of Pixels in Spectrum: 3648
>>>>>Begin Spectral Data<<<<<
639.567	-71.69
639.602	-71.69
639.636	-71.69
639.67	-50.69
639.704	-10.69
639.738	5.31
639.773	3.31
639.807	-20.69
639.841	-2.69
639.875	18.31
639.909	13.31
639.943	-5.69
639.978	-4.69
640.012	16.31
640.046	16.31
640.08	-6.69
640.114	-10.69
640.148	-21.69
640.182	-26.69
640.217	-13.69
640.251	22.31
640.285	13.31
640.319	-7.69
640.353	-15.69
640.387	-7.69
640.421	-2.69
640.455	4.31
640.49	6.31
640.524	-17.69
640.558	2.31
640.592	-7.69
640.626	10.31
640.66	8.31
640.694	-4.69
640.728	12.31
640.762	5.31
640.796	12.31
640.83	18.31
640.865	-5.69
640.899	2.31
640.933	2.31
640.967	-8.69
641.001	-4.69
641.035	18.31
641.069	2.31
641.103	-24.69
641.137	6.31
641.171	-14.69
641.205	6.31
641.239	-5.69
641.273	22.31
641.307	2.31
641.341	-8.69
641.375	0.31
641.409	-11.69
641.443	-2.69
641.477	-3.69
641.511	-11.69
641.545	-1.69
641.579	-10.69
641.614	4.31
641.648	5.31
641.682	-14.69
641.716	7.31
641.75	5.31
641.784	-1.69
641.818	6.31
641.852	-4.69
641.886	-4.69
641.919	9.31
641.953	2.31
641.987	-1.69
642.021	-12.69
642.055	1.31
642.089	-2.69
642.123	-4.69
642.157	-23.69
642.191	-8.69
642.225	4.31
642.259	-12.69
642.293	12.31
642.327	-4.69
642.361	-9.69
642.395	10.31
642.429	15.31
642.463	-0.69
642.497	7.31
642.531	8.31
642.565	-2.69
642.599	0.31
642.633	-13.69
642.666	14.31
642.7	5.31
642.734	2.31
642.768	-14.69
642.802	-1.69
642.836	0.31
642.87	-0.69
642.904	3.31
642.938	10.31
642.972	-6.69
643.005	11.31
643.039	16.31
643.073	-1.69
643.107	6.31
643.141	1.31
643.175	0.31
643.209	9.31
643.243	19.31
643.276	18.31
643.31	10.31
643.344	1.31
643.378	-3.69
643.412	7.31
643.446	-3.69
643.48	-1.69
643.513	7.31
643.547	1.31
643.581	-9.69
643.615	1.31
643.649	12.31
643.683	-13.69
643.716	1.31
643.75	6.31
643.784	-3.69
643.818	2.31
643.852	-4.69
643.886	0.31
643.919	-0.69
643.953	4.31
643.987	-7.69
644.021	13.31
644.055	5.31
644.088	-7.69
644.122	1.31
644.156	1.31
644.19	8.31
644.224	4.31
644.257	-4.69
644.291	-0.69
644.325	-12.69
644.359	-16.69
644.392	-7.69
644.426	8.31
644.46	-1.69
644.494	9.31
644.527	11.31
644.561	5.31
644.595	14.31
644.629	-6.69
644.662	-0.69
644.696	15.31
644.73	-0.69
644.764	8.31
644.797	-7.69
644.831	3.31
644.865	7.31
644.899	7.31
644.932	16.31
644.966	-13.69
645	-1.69
645.033	12.31
645.067	-8.69
645.101	1.31
645.135	-12.69
645.168	-20.69
645.202	-5.69
645.236	4.31
645.269	1.31
645.303	-11.69
645.337	-11.69
645.37	-9.69
645.404	-4.69
645.438	-12.69
645.471	-10.69
645.505	7.31
645.539	7.31
645.572	-11.69
645.606	-21.69
645.64	-4.69
645.673	4.31
645.707	26.31
645.741	6.31
645.774	-1.69
645.808	-7.69
645.842	-17.69
645.875	-4.69
645.909	-18.69
645.943	-8.69
645.976	-0.69
646.01	13.31
646.043	18.31
646.077	21.31
646.111	7.31
646.144	4.31
646.178	0.31
646.212	-26.69
646.245	-0.69
646.279	-8.69
646.312	7.31
646.346	-1.69
646.38	-12.69
646.413	-7.69
646.447	5.31
646.48	1.31
646.514	4.31
646.547	-6.69
646.581	-8.69
646.615	-10.69
646.648	-9.69
646.682	-8.69
646.715	-12.69
646.749	-6.69
646.782	-13.69
646.816	-11.69
646.85	12.31
646.883	-11.69
646.917	-4.69
646.95	-7.69
646.984	2.31
647.017	0.31
647.051	7.31
647.084	13.31
647.118	3.31
647.151	-10.69
647.185	25.31
647.218	0.31
647.252	-2.69
647.285	-17.69
647.319	-14.69
647.353	-0.69
647.386	14.31
647.42	8.31
647.453	1.31
647.487	9.31
647.52	10.31
647.553	2.31
647.587	14.31
647.62	-1.69
647.654	-4.69
647.687	-3.69
647.721	5.31
647.754	6.31
647.788	1.31
647.821	-8.69
647.855	3.31
647.888	6.31
647.922	19.31
647.955	-2.69
647.989	1.31
648.022	-5.69
648.055	10.31
648.089	9.31
648.122	23.31
648.156	2.31
648.189	-6.69
648.223	0.31
648.256	9.31
648.29	10.31
648.323	-4.69
648.356	14.31
648.39	2.31
648.423	-0.69
648.457	-3.69
648.49	-6.69
648.523	5.31
648.557	4.31
648.59	0.31
648.624	16.31
648.657	-6.69
648.69	23.31
648.724	14.31
648.757	6.31
648.791	1.31
648.824	7.31
648.857	19.31
648.891	1.31
648.924	-2.69
648.957	15.31
648.991	-20.69
649.024	12.31
649.057	-0.69
649.091	-13.69
649.124	8.31
649.158	19.31
649.191	26.31
649.224	12.31
649.258	10.31
649.291	0.31
649.324	7.31
649.358	-4.69
649.391	3.31
649.424	-5.69
649.458	3.31
649.491	-13.69
649.524	-9.69
649.557	-2.69
649.591	-30.69
649.624	11.31
649.657	-23.69
649.691	-4.69
649.724	-1.69
649.757	4.31
649.791	-0.69
649.824	21.31
649.857	0.31
649.89	-6.69
649.924	-16.69
649.957	-12.69
649.99	-16.69
650.023	-18.69
650.057	-7.69
650.09	0.31
650.123	-1.69
650.157	3.31
650.19	10.31
650.223	-18.69
650.256	-18.69
650.29	-22.69
650.323	-4.69
650.356	7.31
650.389	3.31
650.423	-19.69
650.456	-2.69
650.489	3.31
650.522	-2.69
650.555	6.31
650.589	26.31
650.622	6.31
650.655	-3.69
650.688	-2.69
650.721	-9.69
650.755	-3.69
650.788	2.31
650.821	-14.69
650.854	-0.69
650.887	-4.69
650.921	7.31
650.954	-12.69
650.987	4.31
651.02	-21.69
651.053	-24.69
651.087	-10.69
651.12	21.31
651.153	10.31
651.186	7.31
651.219	-14.69
651.252	6.31
651.286	20.31
651.319	-9.69
651.352	-1.69
651.385	-7.69
651.418	-6.69
651.451	1.31
651.484	2.31
651.518	-20.69
651.551	22.31
651.584	-10.69
651.617	7.31
651.65	-11.69
651.683	8.31
651.716	10.31
651.749	-7.69
651.783	-2.69
651.816	5.31
651.849	8.31
651.882	2.31
651.915	1.31
651.948	2.31
651.981	-13.69
652.014	-12.69
652.047	-15.69
652.08	-25.69
652.114	1.31
652.147	-4.69
652.18	-5.69
652.213	19.31
652.246	-0.69
652.279	-8.69
652.312	-0.69
652.345	-17.69
652.378	5.31
652.411	4.31
652.444	6.31
652.477	2.31
652.51	-8.69
652.543	-18.69
652.576	4.31
652.609	-5.69
652.642	5.31
652.675	9.31
652.709	-10.69
652.742	-8.69
652.775	-2.69
652.808	-1.69
652.841	-5.69
652.874	-6.69
652.907	-0.69
652.94	-15.69
652.973	-28.69
653.006	-3.69
653.039	-2.69
653.072	3.31
653.105	1.31
653.138	-10.69
653.171	-7.69
653.204	-9.69
653.237	-3.69
653.27	-10.69
653.303	10.31
653.336	0.31
653.368	-0.69
653.401	13.31
653.434	-1.69
653.467	5.31
653.5	-13.69
653.533	10.31
653.566	-13.69
653.599	2.31
653.632	6.31
653.665	13.31
653.698	1.31
653.731	-3.69
653.764	7.31
653.797	18.31
653.83	16.31
653.863	-1.69
653.896	-4.69
653.929	-17.69
653.961	2.31
653.994	5.31
654.027	-12.69
654.06	-4.69
654.093	6.31
654.126	7.31
654.159	-15.69
654.192	2.31
654.225	7.31
654.258	-6.69
654.29	-8.69
654.323	16.31
654.356	-12.69
654.389	-1.69
654.422	-12.69
654.455	-0.69
654.488	-2.69
654.521	-17.69
654.553	-16.69
654.586	-0.69
654.619	1.31
654.652	-17.69
654.685	11.31
654.718	14.31
654.751	14.31
654.783	-7.69
654.816	15.31
654.849	10.31
654.882	0.31
654.915	-28.69
654.948	-5.69
654.98	-2.69
655.013	-8.69
655.046	-8.69
655.079	4.31
655.112	6.31
655.144	-14.69
655.177	4.31
655.21	-2.69
655.243	13.31
655.276	4.31
655.308	-17.69
655.341	-29.69
655.374	0.31
655.407	-7.69
655.44	-8.69
655.472	-0.69
655.505	1.31
655.538	-14.69
655.571	15.31
655.603	4.31
655.636	12.31
655.669	5.31
655.702	-2.69
655.734	-8.69
655.767	-12.69
655.8	0.31
655.833	1.31
655.865	5.31
655.898	-12.69
655.931	-25.69
655.964	0.31
655.996	0.31
656.029	10.31
656.062	-1.69
656.095	-4.69
656.127	-23.69
656.16	-5.69
656.193	-14.69
656.225	7.31
656.258	2.31
656.291	-9.69
656.324	-2.69
656.356	3.31
656.389	3.31
656.422	16.31
656.454	-13.69
656.487	-8.69
656.52	-4.69
656.552	-13.69
656.585	3.31
656.618	4.31
656.65	13.31
656.683	-3.69
656.716	18.31
656.748	0.31
656.781	0.31
656.814	-4.69
656.846	11.31
656.879	-16.69
656.912	-17.69
656.944	-34.69
656.977	-32.69
657.01	6.31
657.042	6.31
657.075	3.31
657.108	-5.69
657.14	-4.69
657.173	-5.69
657.205	16.31
657.238	17.31
657.271	4.31
657.303	-12.69
657.336	0.31
657.369	2.31
657.401	12.31
657.434	-0.69
657.466	20.31
657.499	-13.69
657.532	-6.69
657.564	-7.69
657.597	-3.69
657.629	2.31
657.662	2.31
657.694	12.31
657.727	-18.69
657.76	4.31
657.792	-22.69
657.825	-12.69
657.857	8.31
657.89	-12.69
657.922	-0.69
657.955	-4.69
657.987	-6.69
658.02	14.31
658.053	6.31
658.085	7.31
658.118	-9.69
658.15	1.31
658.183	14.31
658.215	-13.69
658.248	-17.69
658.28	-16.69
658.313	-9.69
658.345	-6.69
658.378	-12.69
658.41	-7.69
658.443	16.31
658.475	2.31
658.508	-22.69
658.54	-16.69
658.573	-6.69
658.605	7.31
658.638	0.31
658.67	-8.69
658.703	1.31
658.735	-5.69
658.768	5.31
658.8	-7.69
658.833	12.31
658.865	-2.69
658.898	2.31
658.93	-12.69
658.963	-19.69
658.995	-9.69
659.028	7.31
659.06	5.31
659.092	2.31
659.125	-6.69
659.157	3.31
659.19	-4.69
659.222	-6.69
659.255	-2.69
659.287	-6.69
659.32	-10.69
659.352	-3.69
659.384	0.31
659.417	-0.69
659.449	6.31
659.482	0.31
659.514	-4.69
659.546	-17.69
659.579	-19.69
659.611	-18.69
659.644	-11.69
659.676	-1.69
659.708	-3.69
659.741	-0.69
659.773	1.31
659.806	13.31
659.838	-5.69
659.87	-5.69
659.903	-16.69
659.935	0.31
659.967	-0.69
660	13.31
660.032	-20.69
660.065	7.31
660.097	6.31
660.129	-9.69
660.162	-14.69
660.194	1.31
660.226	5.31
660.259	-1.69
660.291	-7.69
660.323	-11.69
660.356	-3.69
660.388	-6.69
660.42	-11.69
660.453	3.31
660.485	-1.69
660.517	20.31
660.55	25.31
660.582	0.31
660.614	9.31
660.647	8.31
660.679	-11.69
660.711	-0.69
660.743	-14.69
660.776	-13.69
660.808	-20.69
660.84	-16.69
660.873	3.31
660.905	-10.69
660.937	-2.69
660.969	1.31
661.002	-7.69
661.034	19.31
661.066	-3.69
661.099	-7.69
661.131	-1.69
661.163	-15.69
661.195	-2.69
661.228	2.31
661.26	1.31
661.292	1.31
661.324	1.31
661.357	5.31
661.389	-0.69
661.421	-0.69
661.453	-27.69
661.485	-3.69
661.518	5.31
661.55	-10.69
661.582	-29.69
661.614	-1.69
661.647	19.31
661.679	-7.69
661.711	-2.69
661.743	12.31
661.775	12.31
661.808	5.31
661.84	-18.69
661.872	-10.69
661.904	5.31
661.936	1.31
661.969	-2.69
662.001	1.31
662.033	8.31
662.065	-15.69
662.097	26.31
662.129	2.31
662.162	-15.69
662.194	-5.69
662.226	3.31
662.258	7.31
662.29	4.31
662.322	-15.69
662.355	-16.69
662.387	8.31
662.419	10.31
662.451	4.31
662.483	0.31
662.515	-0.69
662.547	-2.69
662.58	-11.69
662.612	-4.69
662.644	-10.69
662.676	12.31
662.708	14.31
662.74	-1.69
662.772	-1.69
662.804	-0.69
662.836	12.31
662.869	2.31
662.901	6.31
662.933	-9.69
662.965	10.31
662.997	7.31
663.029	-22.69
663.061	-8.69
663.093	0.31
663.125	4.31
663.157	9.31
663.189	14.31
663.221	25.31
663.254	3.31
663.286	-5.69
663.318	-6.69
663.35	-14.69
663.382	-11.69
663.414	-1.69
663.446	14.31
663.478	18.31
663.51	28.31
663.542	6.31
663.574	-19.69
663.606	-10.69
663.638	-9.69
663.67	3.31
663.702	1.31
663.734	-3.69
663.766	14.31
663.798	-11.69
663.83	3.31
663.862	3.31
663.894	12.31
663.926	-3.69
663.958	5.31
663.99	-5.69
664.022	2.31
664.054	17.31
664.086	-2.69
664.118	-3.69
664.15	-6.69
664.182	-5.69
664.214	-14.69
664.246	14.31
664.278	-7.69
664.31	2.31
664.342	17.31
664.374	-4.69
664.406	-1.69
664.438	0.31
664.47	20.31
664.502	4.31
664.534	1.31
664.566	-10.69
664.598	-6.69
664.63	-4.69
664.662	-1.69
664.693	-13.69
664.725	-10.69
664.757	8.31
664.789	-4.69
664.821	10.31
664.853	10.31
664.885	2.31
664.917	-5.69
664.949	9.31
664.981	15.31
665.013	-2.69
665.045	-20.69
665.076	-11.69
665.108	-11.69
665.14	-0.69
665.172	0.31
665.204	-0.69
665.236	-10.69
665.268	5.31
665.3	-10.69
665.331	-12.69
665.363	9.31
665.395	-9.69
665.427	-2.69
665.459	10.31
665.491	-1.69
665.523	6.31
665.555	-4.69
665.586	6.31
665.618	-3.69
665.65	-4.69
665.682	3.31
665.714	16.31
665.746	-1.69
665.777	-10.69
665.809	-2.69
665.841	6.31
665.873	-7.69
665.905	-11.69
665.937	1.31
665.968	6.31
666	-6.69
666.032	2.31
666.064	-16.69
666.096	4.31
666.127	13.31
666.159	7.31
666.191	-1.69
666.223	0.31
666.255	-0.69
666.286	-3.69
666.318	-11.69
666.35	27.31
666.382	-1.69
666.413	-11.69
666.445	-16.69
666.477	-5.69
666.509	-6.69
666.54	-1.69
666.572	1.31
666.604	-5.69
666.636	-7.69
666.667	4.31
666.699	-6.69
666.731	-3.69
666.763	-4.69
666.794	-0.69
666.826	22.31
666.858	-5.69
666.89	21.31
666.921	-2.69
666.953	-2.69
666.985	-10.69
667.017	6.31
667.048	1.31
667.08	-13.69
667.112	-6.69
667.143	-11.69
667.175	2.31
667.207	7.31
667.238	6.31
667.27	2.31
667.302	6.31
667.334	-0.69
667.365	13.31
667.397	-8.69
667.429	-1.69
667.46	2.31
667.492	4.31
667.524	-5.69
667.555	-14.69
667.587	-12.69
667.619	-4.69
667.65	-0.69
667.682	-9.69
667.714	-0.69
667.745	-2.69
667.777	-11.69
667.808	-1.69
667.84	5.31
667.872	9.31
667.903	19.31
667.935	-5.69
667.967	-4.69
667.998	2.31
668.03	-2.69
668.061	1.31
668.093	-9.69
668.125	4.31
668.156	-5.69
668.188	-17.69
668.22	-9.69
668.251	6.31
668.283	6.31
668.314	6.31
668.346	13.31
668.377	9.31
668.409	6.31
668.441	4.31
668.472	7.31
668.504	3.31
668.535	10.31
668.567	-3.69
668.599	-2.69
668.63	-10.69
668.662	-4.69
668.693	13.31
668.725	20.31
668.756	14.31
668.788	-3.69
668.819	-19.69
668.851	-6.69
668.882	-1.69
668.914	6.31
668.946	-0.69
668.977	-5.69
669.009	-4.69
669.04	-16.69
669.072	2.31
669.103	7.31
669.135	-3.69
669.166	0.31
669.198	5.31
669.229	-11.69
669.261	1.31
669.292	-0.69
669.324	-10.69
669.355	22.31
669.387	-6.69
669.418	1.31
669.45	-29.69
669.481	-0.69
669.513	14.31
669.544	13.31
669.576	-3.69
669.607	6.31
669.639	5.31
669.67	-5.69
669.701	10.31
669.733	-8.69
669.764	5.31
669.796	17.31
669.827	-13.69
669.859	1.31
669.89	19.31
669.922	-4.69
669.953	0.31
669.985	1.31
670.016	11.31
670.047	8.31
670.079	-4.69
670.11	-3.69
670.142	9.31
670.173	5.31
670.204	-5.69
670.236	15.31
670.267	-4.69
670.299	-4.69
670.33	4.31
670.362	4.31
670.393	-26.69
670.424	-2.69
670.456	-11.69
670.487	-14.69
670.518	-0.69
670.55	-1.69
670.581	-17.69
670.613	0.31
670.644	-14.69
670.675	4.31
670.707	-4.69
670.738	2.31
670.769	6.31
670.801	-14.69
670.832	-1.69
670.864	-17.69
670.895	2.31
670.926	2.31
670.958	4.31
670.989	0.31
671.02	-7.69
671.052	-6.69
671.083	-2.69
671.114	-14.69
671.146	0.31
671.177	-3.69
671.208	-6.69
671.24	-13.69
671.271	4.31
671.302	9.31
671.333	0.31
671.365	-12.69
671.396	-15.69
671.427	-13.69
671.459	-12.69
671.49	2.31
671.521	-5.69
671.553	-5.69
671.584	22.31
671.615	-13.69
671.646	-1.69
671.678	2.31
671.709	-6.69
671.74	-5.69
671.771	-10.69
671.803	-6.69
671.834	-9.69
671.865	-5.69
671.896	4.31
671.928	-0.69
671.959	-16.69
671.99	-5.69
672.021	9.31
672.053	-14.69
672.084	5.31
672.115	7.31
672.146	-5.69
672.178	-10.69
672.209	-16.69
672.24	-14.69
672.271	14.31
672.303	4.31
672.334	-2.69
672.365	10.31
672.396	13.31
672.427	-10.69
672.459	12.31
672.49	14.31
672.521	2.31
672.552	2.31
672.583	0.31
672.615	-10.69
672.646	-5.69
672.677	-10.69
672.708	-24.69
672.739	-29.69
672.77	18.31
672.802	3.31
672.833	-6.69
672.864	-19.69
672.895	-5.69
672.926	2.31
672.957	-14.69
672.989	-16.69
673.02	2.31
673.051	-8.69
673.082	13.31
673.113	9.31
673.144	4.31
673.175	-3.69
673.206	-3.69
673.238	-1.69
673.269	-4.69
673.3	2.31
673.331	13.31
673.362	-3.69
673.393	-7.69
673.424	17.31
673.455	0.31
673.487	-0.69
673.518	5.31
673.549	6.31
673.58	-2.69
673.611	-4.69
673.642	3.31
673.673	1.31
673.704	-5.69
673.735	-0.69
673.766	-16.69
673.797	-1.69
673.828	-0.69
673.86	-19.69
673.891	-10.69
673.922	-9.69
673.953	-17.69
673.984	-10.69
674.015	1.31
674.046	0.31
674.077	4.31
674.108	-18.69
674.139	5.31
674.17	-8.69
674.201	-17.69
674.232	-13.69
674.263	-5.69
674.294	-16.69
674.325	-16.69
674.356	5.31
674.387	22.31
674.418	-4.69
674.449	-11.69
674.48	-31.69
674.511	-12.69
674.542	24.31
674.573	-23.69
674.604	17.31
674.635	8.31
674.666	7.31
674.697	2.31
674.728	-4.69
674.759	-1.69
674.79	-13.69
674.821	-12.69
674.852	-0.69
674.883	-4.69
674.914	-1.69
674.945	3.31
674.976	-1.69
675.007	-9.69
675.038	-14.69
675.069	-13.69
675.1	-17.69
675.131	-4.69
675.162	-9.69
675.193	-11.69
675.224	-12.69
675.254	-5.69
675.285	12.31
675.316	9.31
675.347	3.31
675.378	-5.69
675.409	-12.69
675.44	3.31
675.471	-3.69
675.502	-5.69
675.533	3.31
675.564	6.31
675.595	4.31
675.625	5.31
675.656	6.31
675.687	-19.69
675.718	-8.69
675.749	2.31
675.78	6.31
675.811	-5.69
675.842	11.31
675.873	5.31
675.903	-5.69
675.934	0.31
675.965	-8.69
675.996	-1.69
676.027	8.31
676.058	-2.69
676.089	-18.69
676.119	4.31
676.15	-12.69
676.181	1.31
676.212	-4.69
676.243	5.31
676.274	-1.69
676.304	3.31
676.335	-14.69
676.366	-14.69
676.397	-3.69
676.428	1.31
676.459	0.31
676.489	3.31
676.52	-5.69
676.551	-15.69
676.582	-20.69
676.613	-10.69
676.643	-2.69
676.674	-4.69
676.705	-4.69
676.736	8.31
676.767	6.31
676.797	20.31
676.828	-9.69
676.859	-14.69
676.89	0.31
676.92	4.31
676.951	-12.69
676.982	-7.69
677.013	-11.69
677.044	8.31
677.074	11.31
677.105	-4.69
677.136	-0.69
677.167	-11.69
677.197	1.31
677.228	8.31
677.259	-11.69
677.289	-8.69
677.32	-4.69
677.351	-9.69
677.382	-8.69
677.412	-6.69
677.443	8.31
677.474	2.31
677.505	-12.69
677.535	2.31
677.566	-9.69
677.597	-15.69
677.627	-26.69
677.658	-14.69
677.689	-9.69
677.72	-15.69
677.75	-13.69
677.781	-1.69
677.812	3.31
677.842	-1.69
677.873	-4.69
677.904	-1.69
677.934	-10.69
677.965	-16.69
677.996	-26.69
678.026	-13.69
678.057	4.31
678.088	-9.69
678.118	1.31
678.149	-25.69
678.18	-28.69
678.21	-2.69
678.241	-3.69
678.272	-11.69
678.302	-21.69
678.333	-11.69
678.363	13.31
678.394	5.31
678.425	-6.69
678.455	6.31
678.486	11.31
678.517	-14.69
678.547	-4.69
678.578	10.31
678.608	-12.69
678.639	-17.69
678.67	-0.69
678.7	-6.69
678.731	-7.69
678.761	-6.69
678.792	-6.69
678.823	3.31
678.853	0.31
678.884	-13.69
678.914	-5.69
678.945	1.31
678.975	1.31
679.006	5.31
679.037	-3.69
679.067	23.31
679.098	-3.69
679.128	-15.69
679.159	-12.69
679.189	-0.69
679.22	-15.69
679.25	12.31
679.281	3.31
679.312	-1.69
679.342	6.31
679.373	31.31
679.403	18.31
679.434	1.31
679.464	-3.69
679.495	-1.69
679.525	6.31
679.556	1.31
679.586	2.31
679.617	11.31
679.647	-15.69
679.678	-0.69
679.708	-10.69
679.739	-3.69
679.769	-0.69
679.8	2.31
679.83	-0.69
679.861	2.31
679.891	13.31
679.922	-18.69
679.952	6.31
679.983	4.31
680.013	11.31
680.044	-8.69
680.074	23.31
680.105	9.31
680.135	3.31
680.165	10.31
680.196	2.31
680.226	3.31
680.257	2.31
680.287	-10.69
680.318	6.31
680.348	-9.69
680.379	5.31
680.409	12.31
680.439	-1.69
680.47	-0.69
680.5	12.31
680.531	-11.69
680.561	-7.69
680.592	-10.69
680.622	13.31
680.652	1.31
680.683	19.31
680.713	-5.69
680.744	-22.69
680.774	-15.69
680.804	7.31
680.835	-3.69
680.865	-11.69
680.896	17.31
680.926	4.31
680.956	-2.69
680.987	-0.69
681.017	-8.69
681.047	-1.69
681.078	-12.69
681.108	-5.69
681.139	-2.69
681.169	-2.69
681.199	-14.69
681.23	17.31
681.26	5.31
681.29	-4.69
681.321	-18.69
681.351	1.31
681.381	-10.69
681.412	6.31
681.442	3.31
681.472	-1.69
681.503	-10.69
681.533	-4.69
681.563	-6.69
681.594	2.31
681.624	8.31
681.654	-3.69
681.685	-6.69
681.715	2.31
681.745	-12.69
681.775	-2.69
681.806	-16.69
681.836	0.31
681.866	-17.69
681.897	0.31
681.927	1.31
681.957	-17.69
681.987	9.31
682.018	-6.69
682.048	-2.69
682.078	5.31
682.109	19.31
682.139	2.31
682.169	2.31
682.199	5.31
682.23	-19.69
