Data from HighRes_mercury_15_13_11_07_2024_HR4C61891__65__15-14-29-686.txt Node

Date: Thu Nov 07 15:14:29 EST 2024
User: crc00042
Spectrometer: HR4C6189
Trigger mode: 4
Integration Time (sec): 1.000000E-1
Scans to average: 1
Electric dark correction enabled: true
Nonlinearity correction enabled: false
Boxcar width: 0
XAxis mode: Wavelengths
Number of Pixels in Spectrum: 3648
>>>>>Begin Spectral Data<<<<<
639.567	-38.62
639.602	-38.62
639.636	-38.62
639.67	-38.62
639.704	-23.62
639.738	-15.62
639.773	21.38
639.807	-16.62
639.841	-10.62
639.875	10.38
639.909	-6.62
639.943	-10.62
639.978	-6.62
640.012	6.38
640.046	8.38
640.08	18.38
640.114	0.38
640.148	1.38
640.182	-20.62
640.217	1.38
640.251	20.38
640.285	15.38
640.319	2.38
640.353	-3.62
640.387	-6.62
640.421	1.38
640.455	2.38
640.49	-9.62
640.524	2.38
640.558	6.38
640.592	-6.62
640.626	-8.62
640.66	-3.62
640.694	-6.62
640.728	1.38
640.762	5.38
640.796	21.38
640.83	21.38
640.865	-2.62
640.899	-7.62
640.933	1.38
640.967	20.38
641.001	7.38
641.035	-0.62
641.069	0.38
641.103	-9.62
641.137	1.38
641.171	-2.62
641.205	11.38
641.239	-2.62
641.273	8.38
641.307	6.38
641.341	6.38
641.375	-6.62
641.409	-12.62
641.443	-6.62
641.477	10.38
641.511	1.38
641.545	26.38
641.579	4.38
641.614	-4.62
641.648	0.38
641.682	-12.62
641.716	-2.62
641.75	6.38
641.784	9.38
641.818	-6.62
641.852	-5.62
641.886	-7.62
641.919	16.38
641.953	-2.62
641.987	-15.62
642.021	-8.62
642.055	-0.62
642.089	6.38
642.123	-22.62
642.157	-13.62
642.191	9.38
642.225	7.38
642.259	10.38
642.293	14.38
642.327	14.38
642.361	3.38
642.395	4.38
642.429	1.38
642.463	4.38
642.497	10.38
642.531	-6.62
642.565	-21.62
642.599	9.38
642.633	3.38
642.666	5.38
642.7	11.38
642.734	17.38
642.768	1.38
642.802	1.38
642.836	15.38
642.87	4.38
642.904	5.38
642.938	-3.62
642.972	14.38
643.005	11.38
643.039	1.38
643.073	-0.62
643.107	15.38
643.141	20.38
643.175	8.38
643.209	-6.62
643.243	2.38
643.276	0.38
643.31	10.38
643.344	4.38
643.378	1.38
643.412	14.38
643.446	-3.62
643.48	-1.62
643.513	-6.62
643.547	-1.62
643.581	-12.62
643.615	19.38
643.649	7.38
643.683	11.38
643.716	-0.62
643.75	3.38
643.784	-28.62
643.818	1.38
643.852	5.38
643.886	-14.62
643.919	6.38
643.953	7.38
643.987	0.38
644.021	-5.62
644.055	13.38
644.088	2.38
644.122	-10.62
644.156	-6.62
644.19	-7.62
644.224	-11.62
644.257	-0.62
644.291	-3.62
644.325	3.38
644.359	-5.62
644.392	9.38
644.426	15.38
644.46	3.38
644.494	15.38
644.527	9.38
644.561	4.38
644.595	-4.62
644.629	-18.62
644.662	6.38
644.696	11.38
644.73	3.38
644.764	-9.62
644.797	-2.62
644.831	4.38
644.865	11.38
644.899	6.38
644.932	38.38
644.966	12.38
645	15.38
645.033	14.38
645.067	-8.62
645.101	4.38
645.135	4.38
645.168	-14.62
645.202	-25.62
645.236	9.38
645.269	5.38
645.303	-0.62
645.337	-23.62
645.37	-2.62
645.404	-4.62
645.438	8.38
645.471	-0.62
645.505	18.38
645.539	5.38
645.572	-1.62
645.606	11.38
645.64	5.38
645.673	1.38
645.707	15.38
645.741	-7.62
645.774	-1.62
645.808	4.38
645.842	-6.62
645.875	1.38
645.909	-11.62
645.943	-4.62
645.976	1.38
646.01	21.38
646.043	1.38
646.077	21.38
646.111	17.38
646.144	-0.62
646.178	10.38
646.212	-16.62
646.245	-6.62
646.279	2.38
646.312	25.38
646.346	27.38
646.38	-3.62
646.413	11.38
646.447	-3.62
646.48	-0.62
646.514	9.38
646.547	5.38
646.581	-8.62
646.615	-19.62
646.648	-22.62
646.682	-0.62
646.715	-4.62
646.749	10.38
646.782	-4.62
646.816	-10.62
646.85	-3.62
646.883	-13.62
646.917	11.38
646.95	2.38
646.984	3.38
647.017	6.38
647.051	0.38
647.084	2.38
647.118	-15.62
647.151	3.38
647.185	8.38
647.218	0.38
647.252	19.38
647.285	-14.62
647.319	-17.62
647.353	-11.62
647.386	0.38
647.42	1.38
647.453	-5.62
647.487	-6.62
647.52	3.38
647.553	15.38
647.587	9.38
647.62	-5.62
647.654	13.38
647.687	1.38
647.721	5.38
647.754	-2.62
647.788	-4.62
647.821	-7.62
647.855	-0.62
647.888	13.38
647.922	10.38
647.955	13.38
647.989	4.38
648.022	3.38
648.055	12.38
648.089	5.38
648.122	24.38
648.156	-4.62
648.189	3.38
648.223	3.38
648.256	9.38
648.29	8.38
648.323	0.38
648.356	28.38
648.39	24.38
648.423	13.38
648.457	13.38
648.49	-4.62
648.523	10.38
648.557	-0.62
648.59	6.38
648.624	1.38
648.657	-0.62
648.69	16.38
648.724	17.38
648.757	14.38
648.791	5.38
648.824	18.38
648.857	21.38
648.891	3.38
648.924	21.38
648.957	4.38
648.991	-15.62
649.024	7.38
649.057	-5.62
649.091	4.38
649.124	-4.62
649.158	1.38
649.191	11.38
649.224	13.38
649.258	15.38
649.291	3.38
649.324	1.38
649.358	-0.62
649.391	3.38
649.424	11.38
649.458	-1.62
649.491	2.38
649.524	-22.62
649.557	-3.62
649.591	-11.62
649.624	18.38
649.657	-10.62
649.691	-0.62
649.724	-11.62
649.757	12.38
649.791	-14.62
649.824	3.38
649.857	11.38
649.89	-1.62
649.924	-5.62
649.957	0.38
649.99	-2.62
650.023	-8.62
650.057	-4.62
650.09	10.38
650.123	-2.62
650.157	8.38
650.19	23.38
650.223	10.38
650.256	-13.62
650.29	-10.62
650.323	0.38
650.356	5.38
650.389	-1.62
650.423	-4.62
650.456	2.38
650.489	-0.62
650.522	-9.62
650.555	6.38
650.589	4.38
650.622	-3.62
650.655	10.38
650.688	5.38
650.721	0.38
650.755	2.38
650.788	13.38
650.821	1.38
650.854	6.38
650.887	10.38
650.921	6.38
650.954	-13.62
650.987	2.38
651.02	-10.62
651.053	-15.62
651.087	0.38
651.12	24.38
651.153	5.38
651.186	8.38
651.219	-8.62
651.252	5.38
651.286	11.38
651.319	-10.62
651.352	-9.62
651.385	-2.62
651.418	0.38
651.451	5.38
651.484	2.38
651.518	-23.62
651.551	5.38
651.584	-2.62
651.617	15.38
651.65	5.38
651.683	10.38
651.716	-18.62
651.749	0.38
651.783	-7.62
651.816	-3.62
651.849	3.38
651.882	0.38
651.915	9.38
651.948	11.38
651.981	-5.62
652.014	-13.62
652.047	-10.62
652.08	-7.62
652.114	2.38
652.147	-0.62
652.18	10.38
652.213	20.38
652.246	3.38
652.279	-1.62
652.312	7.38
652.345	-2.62
652.378	8.38
652.411	32.38
652.444	16.38
652.477	-5.62
652.51	-1.62
652.543	-27.62
652.576	9.38
652.609	-21.62
652.642	-0.62
652.675	3.38
652.709	4.38
652.742	13.38
652.775	-4.62
652.808	10.38
652.841	2.38
652.874	10.38
652.907	10.38
652.94	-15.62
652.973	-18.62
653.006	-10.62
653.039	6.38
653.072	0.38
653.105	-9.62
653.138	-26.62
653.171	-2.62
653.204	-10.62
653.237	6.38
653.27	-1.62
653.303	2.38
653.336	10.38
653.368	-24.62
653.401	3.38
653.434	1.38
653.467	14.38
653.5	-8.62
653.533	-0.62
653.566	6.38
653.599	-11.62
653.632	-1.62
653.665	0.38
653.698	-13.62
653.731	0.38
653.764	7.38
653.797	1.38
653.83	8.38
653.863	0.38
653.896	2.38
653.929	-11.62
653.961	1.38
653.994	7.38
654.027	-16.62
654.06	5.38
654.093	-7.62
654.126	-0.62
654.159	9.38
654.192	-1.62
654.225	-5.62
654.258	-13.62
654.29	6.38
654.323	-0.62
654.356	-11.62
654.389	-2.62
654.422	-5.62
654.455	-5.62
654.488	-0.62
654.521	-17.62
654.553	-19.62
654.586	22.38
654.619	11.38
654.652	-15.62
654.685	7.38
654.718	4.38
654.751	3.38
654.783	-2.62
654.816	12.38
654.849	-1.62
654.882	0.38
654.915	-17.62
654.948	-8.62
654.98	-8.62
655.013	-1.62
655.046	-5.62
655.079	-12.62
655.112	7.38
655.144	-13.62
655.177	0.38
655.21	6.38
655.243	15.38
655.276	4.38
655.308	-4.62
655.341	-7.62
655.374	16.38
655.407	-1.62
655.44	3.38
655.472	2.38
655.505	1.38
655.538	-12.62
655.571	5.38
655.603	0.38
655.636	-9.62
655.669	5.38
655.702	-9.62
655.734	-6.62
655.767	-1.62
655.8	-1.62
655.833	6.38
655.865	1.38
655.898	-8.62
655.931	-8.62
655.964	20.38
655.996	-16.62
656.029	5.38
656.062	1.38
656.095	-5.62
656.127	-13.62
656.16	-5.62
656.193	-9.62
656.225	-6.62
656.258	-6.62
656.291	-4.62
656.324	13.38
656.356	13.38
656.389	18.38
656.422	12.38
656.454	-16.62
656.487	-5.62
656.52	4.38
656.552	1.38
656.585	2.38
656.618	9.38
656.65	6.38
656.683	15.38
656.716	9.38
656.748	-3.62
656.781	-6.62
656.814	1.38
656.846	10.38
656.879	-2.62
656.912	5.38
656.944	-7.62
656.977	-5.62
657.01	-5.62
657.042	4.38
657.075	8.38
657.108	-8.62
657.14	5.38
657.173	16.38
657.205	29.38
657.238	-3.62
657.271	10.38
657.303	-12.62
657.336	2.38
657.369	6.38
657.401	5.38
657.434	8.38
657.466	13.38
657.499	4.38
657.532	15.38
657.564	16.38
657.597	-4.62
657.629	16.38
657.662	3.38
657.694	2.38
657.727	-18.62
657.76	16.38
657.792	-3.62
657.825	-6.62
657.857	2.38
657.89	4.38
657.922	5.38
657.955	-3.62
657.987	10.38
658.02	3.38
658.053	11.38
658.085	9.38
658.118	-0.62
658.15	13.38
658.183	21.38
658.215	-12.62
658.248	-12.62
658.28	0.38
658.313	7.38
658.345	-5.62
658.378	-3.62
658.41	-15.62
658.443	15.38
658.475	2.38
658.508	8.38
658.54	3.38
658.573	3.38
658.605	-6.62
658.638	-3.62
658.67	1.38
658.703	-10.62
658.735	-18.62
658.768	5.38
658.8	3.38
658.833	6.38
658.865	10.38
658.898	-2.62
658.93	-12.62
658.963	-7.62
658.995	-21.62
659.028	13.38
659.06	6.38
659.092	-6.62
659.125	5.38
659.157	22.38
659.19	-2.62
659.222	1.38
659.255	7.38
659.287	7.38
659.32	2.38
659.352	7.38
659.384	21.38
659.417	-12.62
659.449	-12.62
659.482	0.38
659.514	-28.62
659.546	-9.62
659.579	-28.62
659.611	2.38
659.644	-6.62
659.676	-18.62
659.708	-4.62
659.741	11.38
659.773	14.38
659.806	-8.62
659.838	-3.62
659.87	3.38
659.903	-0.62
659.935	9.38
659.967	5.38
660	14.38
660.032	-10.62
660.065	2.38
660.097	9.38
660.129	8.38
660.162	-12.62
660.194	8.38
660.226	8.38
660.259	14.38
660.291	3.38
660.323	-1.62
660.356	11.38
660.388	-18.62
660.42	-11.62
660.453	19.38
660.485	16.38
660.517	8.38
660.55	13.38
660.582	-4.62
660.614	1.38
660.647	-5.62
660.679	-0.62
660.711	12.38
660.743	-8.62
660.776	-13.62
660.808	4.38
660.84	-3.62
660.873	-3.62
660.905	-1.62
660.937	1.38
660.969	0.38
661.002	7.38
661.034	19.38
661.066	8.38
661.099	8.38
661.131	8.38
661.163	-3.62
661.195	11.38
661.228	17.38
661.26	8.38
661.292	5.38
661.324	8.38
661.357	0.38
661.389	-11.62
661.421	-10.62
661.453	4.38
661.485	-12.62
661.518	-3.62
661.55	-13.62
661.582	-11.62
661.614	8.38
661.647	2.38
661.679	-4.62
661.711	6.38
661.743	-22.62
661.775	-3.62
661.808	10.38
661.84	-7.62
661.872	-1.62
661.904	13.38
661.936	5.38
661.969	-18.62
662.001	-16.62
662.033	3.38
662.065	-0.62
662.097	4.38
662.129	1.38
662.162	-15.62
662.194	6.38
662.226	-9.62
662.258	13.38
662.29	12.38
662.322	-7.62
662.355	-6.62
662.387	11.38
662.419	-9.62
662.451	-6.62
662.483	9.38
662.515	-25.62
662.547	-9.62
662.58	-2.62
662.612	-9.62
662.644	-8.62
662.676	-2.62
662.708	0.38
662.74	-1.62
662.772	13.38
662.804	11.38
662.836	24.38
662.869	-11.62
662.901	13.38
662.933	-7.62
662.965	7.38
662.997	12.38
663.029	-12.62
663.061	-8.62
663.093	7.38
663.125	1.38
663.157	10.38
663.189	-8.62
663.221	2.38
663.254	-5.62
663.286	18.38
663.318	-2.62
663.35	8.38
663.382	0.38
663.414	14.38
663.446	-0.62
663.478	2.38
663.51	18.38
663.542	3.38
663.574	6.38
663.606	-1.62
663.638	-7.62
663.67	-14.62
663.702	0.38
663.734	8.38
663.766	9.38
663.798	0.38
663.83	2.38
663.862	6.38
663.894	4.38
663.926	10.38
663.958	11.38
663.99	-14.62
664.022	-11.62
664.054	8.38
664.086	-18.62
664.118	-8.62
664.15	-7.62
664.182	-11.62
664.214	0.38
664.246	7.38
664.278	0.38
664.31	8.38
664.342	11.38
664.374	-10.62
664.406	-5.62
664.438	13.38
664.47	-9.62
664.502	-11.62
664.534	-8.62
664.566	4.38
664.598	1.38
664.63	2.38
664.662	10.38
664.693	1.38
664.725	9.38
664.757	-7.62
664.789	-13.62
664.821	6.38
664.853	10.38
664.885	5.38
664.917	1.38
664.949	14.38
664.981	23.38
665.013	-0.62
665.045	-15.62
665.076	3.38
665.108	2.38
665.14	-9.62
665.172	4.38
665.204	11.38
665.236	-3.62
665.268	11.38
665.3	-6.62
665.331	1.38
665.363	-11.62
665.395	-2.62
665.427	-6.62
665.459	-4.62
665.491	3.38
665.523	0.38
665.555	-0.62
665.586	-4.62
665.618	-8.62
665.65	-11.62
665.682	-8.62
665.714	24.38
665.746	0.38
665.777	6.38
665.809	-0.62
665.841	0.38
665.873	-7.62
665.905	7.38
665.937	21.38
665.968	-15.62
666	-8.62
666.032	4.38
666.064	-7.62
666.096	13.38
666.127	6.38
666.159	21.38
666.191	5.38
666.223	-1.62
666.255	8.38
666.286	7.38
666.318	0.38
666.35	26.38
666.382	-1.62
666.413	10.38
666.445	-18.62
666.477	-7.62
666.509	-10.62
666.54	-3.62
666.572	-14.62
666.604	-0.62
666.636	3.38
666.667	3.38
666.699	17.38
666.731	12.38
666.763	-10.62
666.794	5.38
666.826	12.38
666.858	-4.62
666.89	9.38
666.921	-3.62
666.953	-1.62
666.985	-2.62
667.017	11.38
667.048	10.38
667.08	1.38
667.112	-5.62
667.143	-11.62
667.175	5.38
667.207	-1.62
667.238	14.38
667.27	13.38
667.302	-7.62
667.334	-4.62
667.365	12.38
667.397	5.38
667.429	12.38
667.46	13.38
667.492	12.38
667.524	-2.62
667.555	-9.62
667.587	2.38
667.619	-0.62
667.65	-9.62
667.682	4.38
667.714	10.38
667.745	11.38
667.777	2.38
667.808	20.38
667.84	-4.62
667.872	-10.62
667.903	29.38
667.935	-3.62
667.967	-10.62
667.998	10.38
668.03	-0.62
668.061	17.38
668.093	8.38
668.125	1.38
668.156	8.38
668.188	-2.62
668.22	-9.62
668.251	-5.62
668.283	11.38
668.314	16.38
668.346	8.38
668.377	21.38
668.409	12.38
668.441	30.38
668.472	18.38
668.504	13.38
668.535	13.38
668.567	-10.62
668.599	2.38
668.63	-4.62
668.662	11.38
668.693	11.38
668.725	20.38
668.756	17.38
668.788	1.38
668.819	-0.62
668.851	1.38
668.882	0.38
668.914	-11.62
668.946	11.38
668.977	-17.62
669.009	1.38
669.04	-22.62
669.072	-13.62
669.103	-6.62
669.135	-0.62
669.166	8.38
669.198	0.38
669.229	-2.62
669.261	2.38
669.292	6.38
669.324	4.38
669.355	15.38
669.387	2.38
669.418	15.38
669.45	-1.62
669.481	-8.62
669.513	-1.62
669.544	8.38
669.576	-6.62
669.607	6.38
669.639	19.38
669.67	-21.62
669.701	14.38
669.733	-20.62
669.764	-14.62
669.796	-10.62
669.827	-6.62
669.859	-10.62
669.89	-9.62
669.922	18.38
669.953	24.38
669.985	-8.62
670.016	9.38
670.047	8.38
670.079	3.38
670.11	12.38
670.142	-7.62
670.173	-22.62
670.204	-1.62
670.236	-9.62
670.267	-1.62
670.299	-0.62
670.33	9.38
670.362	6.38
670.393	-0.62
670.424	-0.62
670.456	-3.62
670.487	-2.62
670.518	2.38
670.55	-8.62
670.581	3.38
670.613	2.38
670.644	-10.62
670.675	-4.62
670.707	-7.62
670.738	-4.62
670.769	-1.62
670.801	-0.62
670.832	12.38
670.864	10.38
670.895	-2.62
670.926	-14.62
670.958	5.38
670.989	-6.62
671.02	-5.62
671.052	8.38
671.083	-4.62
671.114	-1.62
671.146	15.38
671.177	4.38
671.208	-12.62
671.24	-17.62
671.271	0.38
671.302	-3.62
671.333	-8.62
671.365	-5.62
671.396	-9.62
671.427	-5.62
671.459	0.38
671.49	2.38
671.521	5.38
671.553	-6.62
671.584	18.38
671.615	-0.62
671.646	23.38
671.678	6.38
671.709	3.38
671.74	-26.62
671.771	-6.62
671.803	-17.62
671.834	-5.62
671.865	-7.62
671.896	16.38
671.928	-5.62
671.959	0.38
671.99	-8.62
672.021	-13.62
672.053	3.38
672.084	2.38
672.115	2.38
672.146	-2.62
672.178	-14.62
672.209	-10.62
672.24	1.38
672.271	20.38
672.303	2.38
672.334	-20.62
672.365	-8.62
672.396	-2.62
672.427	5.38
672.459	7.38
672.49	20.38
672.521	4.38
672.552	20.38
672.583	8.38
672.615	1.38
672.646	11.38
672.677	3.38
672.708	-15.62
672.739	-3.62
672.77	14.38
672.802	4.38
672.833	9.38
672.864	20.38
672.895	-1.62
672.926	5.38
672.957	2.38
672.989	6.38
673.02	-5.62
673.051	-0.62
673.082	10.38
673.113	-1.62
673.144	16.38
673.175	2.38
673.206	-4.62
673.238	-13.62
673.269	0.38
673.3	-11.62
673.331	19.38
673.362	-10.62
673.393	8.38
673.424	27.38
673.455	16.38
673.487	8.38
673.518	6.38
673.549	-3.62
673.58	-3.62
673.611	-6.62
673.642	-14.62
673.673	-11.62
673.704	-0.62
673.735	-9.62
673.766	-13.62
673.797	2.38
673.828	-10.62
673.86	-5.62
673.891	-4.62
673.922	-3.62
673.953	-19.62
673.984	-14.62
674.015	2.38
674.046	-1.62
674.077	6.38
674.108	5.38
674.139	-2.62
674.17	1.38
674.201	-15.62
674.232	-8.62
674.263	-8.62
674.294	11.38
674.325	0.38
674.356	18.38
674.387	14.38
674.418	-5.62
674.449	-6.62
674.48	-10.62
674.511	-10.62
674.542	6.38
674.573	-6.62
674.604	-7.62
674.635	-14.62
674.666	23.38
674.697	8.38
674.728	-17.62
674.759	-2.62
674.79	-15.62
674.821	-7.62
674.852	3.38
674.883	-9.62
674.914	-13.62
674.945	-6.62
674.976	-4.62
675.007	-15.62
675.038	-9.62
675.069	-22.62
675.1	-15.62
675.131	-4.62
675.162	-7.62
675.193	-6.62
675.224	-2.62
675.254	9.38
675.285	2.38
675.316	0.38
675.347	-9.62
675.378	-18.62
675.409	-26.62
675.44	7.38
675.471	-6.62
675.502	-9.62
675.533	-2.62
675.564	-1.62
675.595	-6.62
675.625	15.38
675.656	4.38
675.687	15.38
675.718	-7.62
675.749	10.38
675.78	2.38
675.811	-5.62
675.842	0.38
675.873	-1.62
675.903	-0.62
675.934	2.38
675.965	-16.62
675.996	-13.62
676.027	-0.62
676.058	-1.62
676.089	-10.62
676.119	5.38
676.15	3.38
676.181	-6.62
676.212	-7.62
676.243	-11.62
676.274	-1.62
676.304	21.38
676.335	-4.62
676.366	1.38
676.397	-6.62
676.428	11.38
676.459	13.38
676.489	3.38
676.52	-0.62
676.551	5.38
676.582	-8.62
676.613	-10.62
676.643	-7.62
676.674	19.38
676.705	19.38
676.736	11.38
676.767	17.38
676.797	0.38
676.828	6.38
676.859	1.38
676.89	-1.62
676.92	-16.62
676.951	17.38
676.982	6.38
677.013	-5.62
677.044	22.38
677.074	20.38
677.105	8.38
677.136	1.38
677.167	-4.62
677.197	2.38
677.228	-12.62
677.259	2.38
677.289	2.38
677.32	-11.62
677.351	8.38
677.382	-5.62
677.412	-26.62
677.443	3.38
677.474	-3.62
677.505	-10.62
677.535	3.38
677.566	-0.62
677.597	-2.62
677.627	-3.62
677.658	2.38
677.689	6.38
677.72	15.38
677.75	-2.62
677.781	-5.62
677.812	4.38
677.842	5.38
677.873	6.38
677.904	-11.62
677.934	-9.62
677.965	-2.62
677.996	-23.62
678.026	-8.62
678.057	4.38
678.088	6.38
678.118	-2.62
678.149	-18.62
678.18	1.38
678.21	-5.62
678.241	6.38
678.272	11.38
678.302	-1.62
678.333	9.38
678.363	-2.62
678.394	-6.62
678.425	-2.62
678.455	-1.62
678.486	8.38
678.517	-3.62
678.547	2.38
678.578	12.38
678.608	-20.62
678.639	-6.62
678.67	-1.62
678.7	1.38
678.731	1.38
678.761	0.38
678.792	8.38
678.823	4.38
678.853	-0.62
678.884	-14.62
678.914	7.38
678.945	-9.62
678.975	-16.62
679.006	21.38
679.037	7.38
679.067	19.38
679.098	2.38
679.128	7.38
679.159	2.38
679.189	7.38
679.22	-8.62
679.25	0.38
679.281	-3.62
679.312	2.38
679.342	-3.62
679.373	28.38
679.403	-1.62
679.434	7.38
679.464	0.38
679.495	8.38
679.525	5.38
679.556	-10.62
679.586	-3.62
679.617	6.38
679.647	-2.62
679.678	-0.62
679.708	9.38
679.739	1.38
679.769	1.38
679.8	-0.62
679.83	1.38
679.861	2.38
679.891	-7.62
679.922	-16.62
679.952	0.38
679.983	14.38
680.013	2.38
680.044	-6.62
680.074	4.38
680.105	-5.62
680.135	1.38
680.165	-3.62
680.196	2.38
680.226	6.38
680.257	18.38
680.287	0.38
680.318	0.38
680.348	-12.62
680.379	16.38
680.409	7.38
680.439	-0.62
680.47	2.38
680.5	-2.62
680.531	4.38
680.561	12.38
680.592	2.38
680.622	2.38
680.652	0.38
680.683	0.38
680.713	5.38
680.744	-9.62
680.774	-17.62
680.804	15.38
680.835	-0.62
680.865	1.38
680.896	20.38
680.926	9.38
680.956	18.38
680.987	2.38
681.017	-5.62
681.047	1.38
681.078	-4.62
681.108	-13.62
681.139	-6.62
681.169	-9.62
681.199	-3.62
681.23	21.38
681.26	8.38
681.29	3.38
681.321	-16.62
681.351	-16.62
681.381	-5.62
681.412	4.38
681.442	13.38
681.472	21.38
681.503	6.38
681.533	8.38
681.563	0.38
681.594	-13.62
681.624	3.38
681.654	9.38
681.685	8.38
681.715	-4.62
681.745	-14.62
681.775	-3.62
681.806	-13.62
681.836	-5.62
681.866	-1.62
681.897	8.38
681.927	8.38
681.957	-14.62
681.987	4.38
682.018	-3.62
682.048	-3.62
682.078	4.38
682.109	-5.62
682.139	8.38
682.169	-4.62
682.199	-1.62
682.23	0.38
682.26	9.38
682.29	-14.62
682.32	0.38
682.351	6.38
682.381	1.38
682.411	-5.62
682.441	-8.62
682.472	-5.62
682.502	-9.62
682.532	-0.62
