Data from HighRes_mercury_15_13_11_07_2024_HR4C61891__20__15-14-25-186.txt Node

Date: Thu Nov 07 15:14:25 EST 2024
User: crc00042
Spectrometer: HR4C6189
Trigger mode: 4
Integration Time (sec): 1.000000E-1
Scans to average: 1
Electric dark correction enabled: true
Nonlinearity correction enabled: false
Boxcar width: 0
XAxis mode: Wavelengths
Number of Pixels in Spectrum: 3648
>>>>>Begin Spectral Data<<<<<
639.567	-29.85
639.602	-29.85
639.636	-29.85
639.67	-32.85
639.704	-5.85
639.738	-5.85
639.773	6.15
639.807	-14.85
639.841	-2.85
639.875	15.15
639.909	-5.85
639.943	-13.85
639.978	6.15
640.012	13.15
640.046	1.15
640.08	4.15
640.114	5.15
640.148	-7.85
640.182	0.15
640.217	18.15
640.251	30.15
640.285	8.15
640.319	-14.85
640.353	7.15
640.387	19.15
640.421	2.15
640.455	-22.85
640.49	-0.85
640.524	12.15
640.558	23.15
640.592	5.15
640.626	3.15
640.66	8.15
640.694	5.15
640.728	16.15
640.762	13.15
640.796	23.15
640.83	14.15
640.865	-6.85
640.899	9.15
640.933	9.15
640.967	12.15
641.001	14.15
641.035	6.15
641.069	16.15
641.103	-2.85
641.137	-3.85
641.171	-13.85
641.205	16.15
641.239	22.15
641.273	-8.85
641.307	19.15
641.341	22.15
641.375	0.15
641.409	17.15
641.443	3.15
641.477	5.15
641.511	12.15
641.545	13.15
641.579	5.15
641.614	21.15
641.648	21.15
641.682	-0.85
641.716	7.15
641.75	8.15
641.784	-2.85
641.818	-6.85
641.852	-0.85
641.886	0.15
641.919	31.15
641.953	0.15
641.987	4.15
642.021	7.15
642.055	-3.85
642.089	-6.85
642.123	-5.85
642.157	-9.85
642.191	-12.85
642.225	24.15
642.259	10.15
642.293	20.15
642.327	7.15
642.361	-3.85
642.395	17.15
642.429	20.15
642.463	23.15
642.497	35.15
642.531	6.15
642.565	-4.85
642.599	12.15
642.633	-9.85
642.666	19.15
642.7	16.15
642.734	13.15
642.768	-7.85
642.802	9.15
642.836	7.15
642.87	3.15
642.904	9.15
642.938	21.15
642.972	7.15
643.005	2.15
643.039	11.15
643.073	7.15
643.107	13.15
643.141	5.15
643.175	1.15
643.209	7.15
643.243	16.15
643.276	2.15
643.31	-8.85
643.344	9.15
643.378	13.15
643.412	13.15
643.446	10.15
643.48	-2.85
643.513	9.15
643.547	24.15
643.581	0.15
643.615	4.15
643.649	-1.85
643.683	5.15
643.716	-4.85
643.75	2.15
643.784	-19.85
643.818	6.15
643.852	9.15
643.886	-6.85
643.919	18.15
643.953	3.15
643.987	-2.85
644.021	-4.85
644.055	16.15
644.088	11.15
644.122	-10.85
644.156	-3.85
644.19	11.15
644.224	3.15
644.257	-2.85
644.291	8.15
644.325	6.15
644.359	18.15
644.392	36.15
644.426	28.15
644.46	5.15
644.494	8.15
644.527	-16.85
644.561	5.15
644.595	-2.85
644.629	-11.85
644.662	5.15
644.696	26.15
644.73	15.15
644.764	18.15
644.797	15.15
644.831	-2.85
644.865	1.15
644.899	19.15
644.932	23.15
644.966	5.15
645	12.15
645.033	21.15
645.067	1.15
645.101	10.15
645.135	22.15
645.168	-5.85
645.202	-1.85
645.236	11.15
645.269	16.15
645.303	5.15
645.337	10.15
645.37	18.15
645.404	25.15
645.438	14.15
645.471	9.15
645.505	9.15
645.539	4.15
645.572	-11.85
645.606	5.15
645.64	2.15
645.673	7.15
645.707	25.15
645.741	3.15
645.774	-11.85
645.808	6.15
645.842	-9.85
645.875	15.15
645.909	-1.85
645.943	-6.85
645.976	13.15
646.01	22.15
646.043	29.15
646.077	7.15
646.111	12.15
646.144	20.15
646.178	22.15
646.212	5.15
646.245	0.15
646.279	15.15
646.312	6.15
646.346	25.15
646.38	4.15
646.413	15.15
646.447	9.15
646.48	3.15
646.514	7.15
646.547	10.15
646.581	2.15
646.615	5.15
646.648	1.15
646.682	1.15
646.715	-1.85
646.749	10.15
646.782	4.15
646.816	-0.85
646.85	11.15
646.883	-6.85
646.917	13.15
646.95	5.15
646.984	20.15
647.017	19.15
647.051	11.15
647.084	0.15
647.118	-8.85
647.151	5.15
647.185	10.15
647.218	-1.85
647.252	15.15
647.285	4.15
647.319	-6.85
647.353	13.15
647.386	18.15
647.42	17.15
647.453	11.15
647.487	6.15
647.52	8.15
647.553	14.15
647.587	18.15
647.62	7.15
647.654	10.15
647.687	7.15
647.721	-2.85
647.754	10.15
647.788	2.15
647.821	15.15
647.855	12.15
647.888	18.15
647.922	12.15
647.955	10.15
647.989	2.15
648.022	6.15
648.055	10.15
648.089	-7.85
648.122	14.15
648.156	-4.85
648.189	10.15
648.223	12.15
648.256	12.15
648.29	18.15
648.323	-2.85
648.356	6.15
648.39	11.15
648.423	2.15
648.457	-0.85
648.49	14.15
648.523	12.15
648.557	6.15
648.59	1.15
648.624	2.15
648.657	12.15
648.69	23.15
648.724	21.15
648.757	13.15
648.791	6.15
648.824	8.15
648.857	24.15
648.891	4.15
648.924	8.15
648.957	22.15
648.991	-6.85
649.024	7.15
649.057	11.15
649.091	-5.85
649.124	11.15
649.158	-3.85
649.191	25.15
649.224	10.15
649.258	13.15
649.291	7.15
649.324	-0.85
649.358	1.15
649.391	6.15
649.424	1.15
649.458	9.15
649.491	-5.85
649.524	4.15
649.557	-5.85
649.591	-5.85
649.624	38.15
649.657	-7.85
649.691	-1.85
649.724	12.15
649.757	6.15
649.791	-2.85
649.824	11.15
649.857	5.15
649.89	19.15
649.924	3.15
649.957	-4.85
649.99	1.15
650.023	12.15
650.057	-11.85
650.09	6.15
650.123	13.15
650.157	19.15
650.19	32.15
650.223	4.15
650.256	2.15
650.29	10.15
650.323	3.15
650.356	4.15
650.389	-1.85
650.423	-7.85
650.456	4.15
650.489	5.15
650.522	7.15
650.555	6.15
650.589	14.15
650.622	15.15
650.655	23.15
650.688	13.15
650.721	2.15
650.755	11.15
650.788	14.15
650.821	4.15
650.854	-0.85
650.887	-7.85
650.921	5.15
650.954	17.15
650.987	10.15
651.02	2.15
651.053	-11.85
651.087	-0.85
651.12	23.15
651.153	5.15
651.186	6.15
651.219	-8.85
651.252	1.15
651.286	9.15
651.319	-5.85
651.352	-4.85
651.385	12.15
651.418	5.15
651.451	39.15
651.484	15.15
651.518	12.15
651.551	24.15
651.584	2.15
651.617	18.15
651.65	1.15
651.683	26.15
651.716	15.15
651.749	-13.85
651.783	3.15
651.816	3.15
651.849	6.15
651.882	1.15
651.915	2.15
651.948	8.15
651.981	1.15
652.014	-17.85
652.047	-5.85
652.08	-2.85
652.114	19.15
652.147	-1.85
652.18	5.15
652.213	36.15
652.246	14.15
652.279	-2.85
652.312	21.15
652.345	-4.85
652.378	13.15
652.411	32.15
652.444	23.15
652.477	3.15
652.51	-9.85
652.543	2.15
652.576	-0.85
652.609	-16.85
652.642	5.15
652.675	13.15
652.709	11.15
652.742	17.15
652.775	3.15
652.808	18.15
652.841	13.15
652.874	0.15
652.907	7.15
652.94	4.15
652.973	-12.85
653.006	1.15
653.039	-1.85
653.072	14.15
653.105	-6.85
653.138	-8.85
653.171	-13.85
653.204	-4.85
653.237	29.15
653.27	3.15
653.303	15.15
653.336	17.15
653.368	13.15
653.401	3.15
653.434	-0.85
653.467	14.15
653.5	8.15
653.533	-6.85
653.566	7.15
653.599	16.15
653.632	-2.85
653.665	8.15
653.698	0.15
653.731	-10.85
653.764	17.15
653.797	3.15
653.83	28.15
653.863	16.15
653.896	10.15
653.929	8.15
653.961	10.15
653.994	-5.85
654.027	-7.85
654.06	16.15
654.093	15.15
654.126	-7.85
654.159	-9.85
654.192	8.15
654.225	4.15
654.258	7.15
654.29	7.15
654.323	11.15
654.356	-5.85
654.389	16.15
654.422	12.15
654.455	22.15
654.488	10.15
654.521	-2.85
654.553	-8.85
654.586	8.15
654.619	11.15
654.652	10.15
654.685	-4.85
654.718	20.15
654.751	16.15
654.783	9.15
654.816	8.15
654.849	-0.85
654.882	-14.85
654.915	2.15
654.948	7.15
654.98	2.15
655.013	-1.85
655.046	3.15
655.079	-6.85
655.112	6.15
655.144	4.15
655.177	15.15
655.21	8.15
655.243	0.15
655.276	5.15
655.308	5.15
655.341	2.15
655.374	3.15
655.407	-23.85
655.44	0.15
655.472	3.15
655.505	5.15
655.538	7.15
655.571	-0.85
655.603	-1.85
655.636	4.15
655.669	11.15
655.702	-4.85
655.734	-9.85
655.767	-9.85
655.8	10.15
655.833	14.15
655.865	11.15
655.898	0.15
655.931	2.15
655.964	2.15
655.996	13.15
656.029	17.15
656.062	-2.85
656.095	12.15
656.127	-9.85
656.16	9.15
656.193	9.15
656.225	8.15
656.258	28.15
656.291	0.15
656.324	41.15
656.356	6.15
656.389	7.15
656.422	0.15
656.454	-10.85
656.487	-0.85
656.52	3.15
656.552	-11.85
656.585	2.15
656.618	14.15
656.65	5.15
656.683	-23.85
656.716	1.15
656.748	4.15
656.781	10.15
656.814	-7.85
656.846	-3.85
656.879	-6.85
656.912	1.15
656.944	-6.85
656.977	-3.85
657.01	3.15
657.042	16.15
657.075	23.15
657.108	2.15
657.14	3.15
657.173	12.15
657.205	24.15
657.238	18.15
657.271	2.15
657.303	-2.85
657.336	0.15
657.369	5.15
657.401	16.15
657.434	1.15
657.466	17.15
657.499	13.15
657.532	-0.85
657.564	14.15
657.597	15.15
657.629	17.15
657.662	4.15
657.694	5.15
657.727	5.15
657.76	12.15
657.792	2.15
657.825	4.15
657.857	-5.85
657.89	3.15
657.922	15.15
657.955	6.15
657.987	2.15
658.02	15.15
658.053	15.15
658.085	27.15
658.118	1.15
658.15	14.15
658.183	26.15
658.215	9.15
658.248	1.15
658.28	-5.85
658.313	10.15
658.345	18.15
658.378	5.15
658.41	-2.85
658.443	8.15
658.475	-8.85
658.508	15.15
658.54	9.15
658.573	3.15
658.605	8.15
658.638	2.15
658.67	12.15
658.703	4.15
658.735	-13.85
658.768	-6.85
658.8	-6.85
658.833	28.15
658.865	7.15
658.898	1.15
658.93	0.15
658.963	2.15
658.995	-2.85
659.028	1.15
659.06	14.15
659.092	5.15
659.125	-6.85
659.157	0.15
659.19	4.15
659.222	5.15
659.255	14.15
659.287	6.15
659.32	-2.85
659.352	11.15
659.384	24.15
659.417	-0.85
659.449	0.15
659.482	21.15
659.514	0.15
659.546	-2.85
659.579	-6.85
659.611	-6.85
659.644	2.15
659.676	-8.85
659.708	-10.85
659.741	-1.85
659.773	27.15
659.806	18.15
659.838	15.15
659.87	9.15
659.903	-5.85
659.935	12.15
659.967	9.15
660	5.15
660.032	-16.85
660.065	14.15
660.097	2.15
660.129	-5.85
660.162	-17.85
660.194	-3.85
660.226	15.15
660.259	15.15
660.291	-4.85
660.323	-7.85
660.356	-9.85
660.388	-6.85
660.42	-6.85
660.453	15.15
660.485	16.15
660.517	21.15
660.55	13.15
660.582	10.15
660.614	15.15
660.647	13.15
660.679	-25.85
660.711	6.15
660.743	-13.85
660.776	-6.85
660.808	3.15
660.84	0.15
660.873	-7.85
660.905	4.15
660.937	2.15
660.969	-4.85
661.002	-1.85
661.034	24.15
661.066	0.15
661.099	12.15
661.131	17.15
661.163	9.15
661.195	-3.85
661.228	17.15
661.26	7.15
661.292	5.15
661.324	17.15
661.357	15.15
661.389	10.15
661.421	18.15
661.453	9.15
661.485	14.15
661.518	0.15
661.55	-10.85
661.582	-19.85
661.614	4.15
661.647	13.15
661.679	10.15
661.711	6.15
661.743	-1.85
661.775	6.15
661.808	18.15
661.84	-9.85
661.872	12.15
661.904	-5.85
661.936	12.15
661.969	-6.85
662.001	-5.85
662.033	6.15
662.065	-2.85
662.097	23.15
662.129	10.15
662.162	-7.85
662.194	5.15
662.226	-0.85
662.258	5.15
662.29	-1.85
662.322	-11.85
662.355	-17.85
662.387	25.15
662.419	10.15
662.451	10.15
662.483	7.15
662.515	-5.85
662.547	-11.85
662.58	-15.85
662.612	0.15
662.644	-8.85
662.676	3.15
662.708	19.15
662.74	10.15
662.772	10.15
662.804	8.15
662.836	5.15
662.869	1.15
662.901	13.15
662.933	16.15
662.965	16.15
662.997	5.15
663.029	10.15
663.061	2.15
663.093	-0.85
663.125	-7.85
663.157	-5.85
663.189	6.15
663.221	17.15
663.254	0.15
663.286	20.15
663.318	-8.85
663.35	-11.85
663.382	14.15
663.414	-2.85
663.446	3.15
663.478	-9.85
663.51	8.15
663.542	-0.85
663.574	0.15
663.606	10.15
663.638	-14.85
663.67	11.15
663.702	12.15
663.734	-4.85
663.766	0.15
663.798	4.15
663.83	12.15
663.862	17.15
663.894	9.15
663.926	0.15
663.958	18.15
663.99	-0.85
664.022	-2.85
664.054	18.15
664.086	-2.85
664.118	1.15
664.15	-2.85
664.182	4.15
664.214	10.15
664.246	26.15
664.278	-5.85
664.31	7.15
664.342	7.15
664.374	-5.85
664.406	1.15
664.438	-3.85
664.47	13.15
664.502	-4.85
664.534	-15.85
664.566	-2.85
664.598	9.15
664.63	4.15
664.662	15.15
664.693	1.15
664.725	-0.85
664.757	4.15
664.789	7.15
664.821	10.15
664.853	19.15
664.885	-7.85
664.917	-1.85
664.949	24.15
664.981	14.15
665.013	5.15
665.045	-6.85
665.076	2.15
665.108	7.15
665.14	11.15
665.172	4.15
665.204	-10.85
665.236	-10.85
665.268	5.15
665.3	-5.85
665.331	-0.85
665.363	7.15
665.395	-12.85
665.427	-6.85
665.459	3.15
665.491	13.15
665.523	-0.85
665.555	1.15
665.586	9.15
665.618	14.15
665.65	-16.85
665.682	19.15
665.714	9.15
665.746	-20.85
665.777	0.15
665.809	0.15
665.841	5.15
665.873	-0.85
665.905	11.15
665.937	15.15
665.968	18.15
666	4.15
666.032	-8.85
666.064	0.15
666.096	-5.85
666.127	-2.85
666.159	14.15
666.191	22.15
666.223	4.15
666.255	-1.85
666.286	15.15
666.318	4.15
666.35	27.15
666.382	4.15
666.413	-7.85
666.445	-2.85
666.477	-7.85
666.509	11.15
666.54	13.15
666.572	-0.85
666.604	4.15
666.636	8.15
666.667	13.15
666.699	23.15
666.731	10.15
666.763	-1.85
666.794	-1.85
666.826	6.15
666.858	-8.85
666.89	9.15
666.921	-1.85
666.953	9.15
666.985	15.15
667.017	26.15
667.048	0.15
667.08	1.15
667.112	1.15
667.143	-5.85
667.175	8.15
667.207	3.15
667.238	8.15
667.27	11.15
667.302	3.15
667.334	2.15
667.365	14.15
667.397	21.15
667.429	-4.85
667.46	11.15
667.492	5.15
667.524	6.15
667.555	4.15
667.587	10.15
667.619	4.15
667.65	3.15
667.682	4.15
667.714	7.15
667.745	18.15
667.777	19.15
667.808	25.15
667.84	-1.85
667.872	8.15
667.903	31.15
667.935	-5.85
667.967	4.15
667.998	-0.85
668.03	6.15
668.061	-0.85
668.093	-3.85
668.125	10.15
668.156	-0.85
668.188	-2.85
668.22	7.15
668.251	25.15
668.283	24.15
668.314	23.15
668.346	12.15
668.377	17.15
668.409	12.15
668.441	25.15
668.472	23.15
668.504	18.15
668.535	3.15
668.567	16.15
668.599	10.15
668.63	3.15
668.662	9.15
668.693	25.15
668.725	9.15
668.756	3.15
668.788	17.15
668.819	6.15
668.851	5.15
668.882	7.15
668.914	7.15
668.946	-9.85
668.977	4.15
669.009	6.15
669.04	-13.85
669.072	9.15
669.103	0.15
669.135	11.15
669.166	-9.85
669.198	-2.85
669.229	20.15
669.261	1.15
669.292	4.15
669.324	22.15
669.355	5.15
669.387	-18.85
669.418	1.15
669.45	3.15
669.481	6.15
669.513	2.15
669.544	0.15
669.576	14.15
669.607	12.15
669.639	12.15
669.67	0.15
669.701	23.15
669.733	-11.85
669.764	-11.85
669.796	-4.85
669.827	-0.85
669.859	-1.85
669.89	16.15
669.922	7.15
669.953	5.15
669.985	17.15
670.016	20.15
670.047	10.15
670.079	18.15
670.11	-3.85
670.142	1.15
670.173	11.15
670.204	3.15
670.236	21.15
670.267	-7.85
670.299	2.15
670.33	0.15
670.362	-1.85
670.393	8.15
670.424	10.15
670.456	-3.85
670.487	-4.85
670.518	13.15
670.55	1.15
670.581	18.15
670.613	-5.85
670.644	-3.85
670.675	-12.85
670.707	-1.85
670.738	-1.85
670.769	0.15
670.801	-2.85
670.832	12.15
670.864	-3.85
670.895	18.15
670.926	5.15
670.958	9.15
670.989	-1.85
671.02	5.15
671.052	15.15
671.083	8.15
671.114	-0.85
671.146	9.15
671.177	4.15
671.208	-11.85
671.24	-10.85
671.271	3.15
671.302	3.15
671.333	-13.85
671.365	-9.85
671.396	0.15
671.427	10.15
671.459	9.15
671.49	10.15
671.521	11.15
671.553	8.15
671.584	12.15
671.615	-13.85
671.646	4.15
671.678	21.15
671.709	-3.85
671.74	-14.85
671.771	-2.85
671.803	13.15
671.834	7.15
671.865	12.15
671.896	14.15
671.928	6.15
671.959	-9.85
671.99	-4.85
672.021	0.15
672.053	-0.85
672.084	21.15
672.115	8.15
672.146	-0.85
672.178	-11.85
672.209	1.15
672.24	9.15
672.271	23.15
672.303	3.15
672.334	-8.85
672.365	-1.85
672.396	3.15
672.427	16.15
672.459	8.15
672.49	12.15
672.521	35.15
672.552	-2.85
672.583	11.15
672.615	2.15
672.646	8.15
672.677	-6.85
672.708	-13.85
672.739	-1.85
672.77	33.15
672.802	12.15
672.833	7.15
672.864	25.15
672.895	10.15
672.926	9.15
672.957	4.15
672.989	8.15
673.02	18.15
673.051	4.15
673.082	23.15
673.113	5.15
673.144	16.15
673.175	0.15
673.206	5.15
673.238	-8.85
673.269	17.15
673.3	4.15
673.331	27.15
673.362	12.15
673.393	-5.85
673.424	17.15
673.455	20.15
673.487	-2.85
673.518	13.15
673.549	11.15
673.58	-10.85
673.611	5.15
673.642	2.15
673.673	-8.85
673.704	4.15
673.735	-2.85
673.766	4.15
673.797	-3.85
673.828	-1.85
673.86	-10.85
673.891	-5.85
673.922	-4.85
673.953	2.15
673.984	7.15
674.015	11.15
674.046	-3.85
674.077	1.15
674.108	-11.85
674.139	8.15
674.17	-7.85
674.201	-2.85
674.232	2.15
674.263	-20.85
674.294	-8.85
674.325	-15.85
674.356	-7.85
674.387	22.15
674.418	-14.85
674.449	9.15
674.48	6.15
674.511	0.15
674.542	2.15
674.573	-0.85
674.604	20.15
674.635	-6.85
674.666	14.15
674.697	5.15
674.728	4.15
674.759	-1.85
674.79	-1.85
674.821	7.15
674.852	3.15
674.883	-7.85
674.914	-6.85
674.945	-2.85
674.976	-1.85
675.007	-6.85
675.038	6.15
675.069	3.15
675.1	-8.85
675.131	-2.85
675.162	-6.85
675.193	-17.85
675.224	-5.85
675.254	4.15
675.285	4.15
675.316	16.15
675.347	-7.85
675.378	-7.85
675.409	0.15
675.44	-7.85
675.471	9.15
675.502	1.15
675.533	-1.85
675.564	8.15
675.595	7.15
675.625	17.15
675.656	26.15
675.687	5.15
675.718	-5.85
675.749	15.15
675.78	7.15
675.811	0.15
675.842	5.15
675.873	14.15
675.903	3.15
675.934	3.15
675.965	-3.85
675.996	-6.85
676.027	0.15
676.058	10.15
676.089	-6.85
676.119	10.15
676.15	-1.85
676.181	3.15
676.212	2.15
676.243	20.15
676.274	5.15
676.304	17.15
676.335	-6.85
676.366	8.15
676.397	11.15
676.428	6.15
676.459	4.15
676.489	6.15
676.52	15.15
676.551	18.15
676.582	-8.85
676.613	6.15
676.643	4.15
676.674	12.15
676.705	0.15
676.736	14.15
676.767	15.15
676.797	17.15
676.828	25.15
676.859	10.15
676.89	5.15
676.92	11.15
676.951	8.15
676.982	2.15
677.013	-6.85
677.044	18.15
677.074	11.15
677.105	9.15
677.136	6.15
677.167	9.15
677.197	25.15
677.228	3.15
677.259	-9.85
677.289	1.15
677.32	4.15
677.351	-0.85
677.382	2.15
677.412	-10.85
677.443	-0.85
677.474	1.15
677.505	10.15
677.535	11.15
677.566	-5.85
677.597	-7.85
677.627	-17.85
677.658	-2.85
677.689	10.15
677.72	-1.85
677.75	1.15
677.781	17.15
677.812	5.15
677.842	7.15
677.873	1.15
677.904	4.15
677.934	-10.85
677.965	5.15
677.996	-14.85
678.026	-15.85
678.057	14.15
678.088	3.15
678.118	12.15
678.149	-13.85
678.18	-2.85
678.21	11.15
678.241	1.15
678.272	4.15
678.302	-12.85
678.333	7.15
678.363	8.15
678.394	7.15
678.425	13.15
678.455	7.15
678.486	25.15
678.517	-9.85
678.547	16.15
678.578	18.15
678.608	-13.85
678.639	-5.85
678.67	9.15
678.7	-13.85
678.731	2.15
678.761	2.15
678.792	4.15
678.823	7.15
678.853	7.15
678.884	3.15
678.914	10.15
678.945	7.15
678.975	2.15
679.006	12.15
679.037	6.15
679.067	21.15
679.098	-1.85
679.128	-8.85
679.159	10.15
679.189	9.15
679.22	-1.85
679.25	2.15
679.281	10.15
679.312	11.15
679.342	-6.85
679.373	23.15
679.403	6.15
679.434	29.15
679.464	5.15
679.495	18.15
679.525	13.15
679.556	1.15
679.586	9.15
679.617	8.15
679.647	-3.85
679.678	7.15
679.708	4.15
679.739	8.15
679.769	-5.85
679.8	3.15
679.83	1.15
679.861	6.15
679.891	-7.85
679.922	-18.85
679.952	4.15
679.983	-6.85
680.013	17.15
680.044	-4.85
680.074	5.15
680.105	-2.85
680.135	2.15
680.165	13.15
680.196	17.15
680.226	10.15
680.257	16.15
680.287	4.15
680.318	0.15
680.348	-17.85
680.379	17.15
680.409	-2.85
680.439	14.15
680.47	2.15
680.5	10.15
680.531	2.15
680.561	17.15
680.592	17.15
680.622	12.15
680.652	-5.85
680.683	27.15
680.713	13.15
680.744	-10.85
680.774	-0.85
680.804	22.15
680.835	-16.85
680.865	-9.85
680.896	17.15
680.926	10.15
680.956	12.15
680.987	2.15
681.017	-9.85
681.047	-2.85
681.078	-5.85
681.108	3.15
681.139	3.15
681.169	-0.85
681.199	10.15
681.23	19.15
681.26	3.15
681.29	0.15
681.321	-5.85
681.351	-4.85
681.381	5.15
681.412	6.15
681.442	7.15
681.472	25.15
681.503	-1.85
681.533	7.15
681.563	15.15
681.594	6.15
681.624	26.15
681.654	-2.85
681.685	12.15
681.715	5.15
681.745	4.15
681.775	-1.85
681.806	-0.85
681.836	4.15
681.866	6.15
681.897	17.15
681.927	3.15
681.957	-23.85
681.987	7.15
682.018	2.15
682.048	7.15
682.078	6.15
682.109	16.15
682.139	18.15
682.169	16.15
682.199	-8.85
682.23	2.15
682.26	11.15
682.29	6.15
682.32	-6.85
682.351	8.15
682.381	9.15
682.411	8.15
682.441	0.15
682.472	-1.85
682.502	-14.85
682.532	-5.85
682.562	7.15
682.592	0.15
682.623	20.15
682.653	9.15
682.683	1.15
682.713	4.15
682.743	-2.85
682.774	-7.85
682.804	4.15
682.834	22.15
