Data from HighRes_mercury_15_13_11_07_2024_HR4C61891__28__15-14-25-986.txt Node

Date: Thu Nov 07 15:14:25 EST 2024
User: crc00042
Spectrometer: HR4C6189
Trigger mode: 4
Integration Time (sec): 1.000000E-1
Scans to average: 1
Electric dark correction enabled: true
Nonlinearity correction enabled: false
Boxcar width: 0
XAxis mode: Wavelengths
Number of Pixels in Spectrum: 3648
>>>>>Begin Spectral Data<<<<<
639.567	-64.38
639.602	-64.38
639.636	-64.38
639.67	-43.38
639.704	-10.38
639.738	-3.38
639.773	11.62
639.807	-20.38
639.841	-3.38
639.875	17.62
639.909	2.62
639.943	-12.38
639.978	-6.38
640.012	4.62
640.046	3.62
640.08	9.62
640.114	8.62
640.148	-12.38
640.182	-6.38
640.217	-1.38
640.251	16.62
640.285	5.62
640.319	-18.38
640.353	11.62
640.387	-6.38
640.421	-7.38
640.455	-2.38
640.49	-14.38
640.524	-12.38
640.558	-13.38
640.592	3.62
640.626	-4.38
640.66	2.62
640.694	-10.38
640.728	7.62
640.762	0.62
640.796	4.62
640.83	6.62
640.865	-22.38
640.899	-11.38
640.933	-13.38
640.967	-3.38
641.001	6.62
641.035	1.62
641.069	-0.38
641.103	-10.38
641.137	-10.38
641.171	-18.38
641.205	-17.38
641.239	-2.38
641.273	8.62
641.307	-1.38
641.341	-4.38
641.375	-9.38
641.409	-7.38
641.443	-3.38
641.477	-7.38
641.511	-7.38
641.545	9.62
641.579	-6.38
641.614	-3.38
641.648	-3.38
641.682	-18.38
641.716	-3.38
641.75	1.62
641.784	0.62
641.818	-8.38
641.852	0.62
641.886	-16.38
641.919	9.62
641.953	-20.38
641.987	-2.38
642.021	-10.38
642.055	-1.38
642.089	10.62
642.123	-17.38
642.157	-14.38
642.191	-15.38
642.225	11.62
642.259	-3.38
642.293	16.62
642.327	1.62
642.361	-11.38
642.395	6.62
642.429	9.62
642.463	-4.38
642.497	-10.38
642.531	-1.38
642.565	-2.38
642.599	-3.38
642.633	-0.38
642.666	7.62
642.7	9.62
642.734	15.62
642.768	-17.38
642.802	-7.38
642.836	-7.38
642.87	-10.38
642.904	-2.38
642.938	20.62
642.972	-3.38
643.005	1.62
643.039	8.62
643.073	1.62
643.107	8.62
643.141	-14.38
643.175	-8.38
643.209	-5.38
643.243	-16.38
643.276	-2.38
643.31	-1.38
643.344	-3.38
643.378	-11.38
643.412	-3.38
643.446	-6.38
643.48	-4.38
643.513	-2.38
643.547	-5.38
643.581	-11.38
643.615	11.62
643.649	-1.38
643.683	0.62
643.716	-5.38
643.75	-10.38
643.784	-27.38
643.818	-19.38
643.852	-13.38
643.886	2.62
643.919	6.62
643.953	-15.38
643.987	-15.38
644.021	-3.38
644.055	2.62
644.088	-18.38
644.122	-21.38
644.156	-21.38
644.19	-8.38
644.224	-6.38
644.257	-13.38
644.291	9.62
644.325	5.62
644.359	0.62
644.392	27.62
644.426	-5.38
644.46	-5.38
644.494	-3.38
644.527	-6.38
644.561	-13.38
644.595	-21.38
644.629	-22.38
644.662	-10.38
644.696	5.62
644.73	7.62
644.764	14.62
644.797	-16.38
644.831	10.62
644.865	0.62
644.899	-7.38
644.932	18.62
644.966	-6.38
645	9.62
645.033	-4.38
645.067	-11.38
645.101	9.62
645.135	-12.38
645.168	-22.38
645.202	-24.38
645.236	-1.38
645.269	-6.38
645.303	-8.38
645.337	-21.38
645.37	5.62
645.404	-6.38
645.438	-5.38
645.471	-6.38
645.505	-9.38
645.539	-2.38
645.572	-3.38
645.606	11.62
645.64	6.62
645.673	-1.38
645.707	26.62
645.741	-8.38
645.774	-22.38
645.808	-6.38
645.842	-8.38
645.875	7.62
645.909	-16.38
645.943	-24.38
645.976	2.62
646.01	-14.38
646.043	9.62
646.077	13.62
646.111	14.62
646.144	19.62
646.178	3.62
646.212	-19.38
646.245	-20.38
646.279	5.62
646.312	0.62
646.346	22.62
646.38	-1.38
646.413	4.62
646.447	-11.38
646.48	-4.38
646.514	14.62
646.547	0.62
646.581	-5.38
646.615	-5.38
646.648	-8.38
646.682	7.62
646.715	-7.38
646.749	3.62
646.782	-8.38
646.816	-14.38
646.85	10.62
646.883	-13.38
646.917	4.62
646.95	17.62
646.984	12.62
647.017	-1.38
647.051	7.62
647.084	-2.38
647.118	-13.38
647.151	-11.38
647.185	-7.38
647.218	-19.38
647.252	7.62
647.285	-20.38
647.319	-16.38
647.353	-6.38
647.386	4.62
647.42	-10.38
647.453	-15.38
647.487	3.62
647.52	13.62
647.553	3.62
647.587	-14.38
647.62	-13.38
647.654	-8.38
647.687	-3.38
647.721	8.62
647.754	-3.38
647.788	-0.38
647.821	-8.38
647.855	-8.38
647.888	9.62
647.922	5.62
647.955	6.62
647.989	7.62
648.022	8.62
648.055	-1.38
648.089	-5.38
648.122	16.62
648.156	-7.38
648.189	-15.38
648.223	15.62
648.256	7.62
648.29	-0.38
648.323	-3.38
648.356	-1.38
648.39	-4.38
648.423	-16.38
648.457	-4.38
648.49	2.62
648.523	-3.38
648.557	-5.38
648.59	-27.38
648.624	-14.38
648.657	6.62
648.69	9.62
648.724	5.62
648.757	10.62
648.791	6.62
648.824	-0.38
648.857	-10.38
648.891	4.62
648.924	-12.38
648.957	12.62
648.991	-12.38
649.024	-0.38
649.057	7.62
649.091	-5.38
649.124	9.62
649.158	-4.38
649.191	15.62
649.224	-15.38
649.258	-8.38
649.291	3.62
649.324	8.62
649.358	2.62
649.391	-0.38
649.424	-7.38
649.458	-3.38
649.491	-11.38
649.524	-12.38
649.557	-14.38
649.591	-31.38
649.624	8.62
649.657	-26.38
649.691	-9.38
649.724	-8.38
649.757	-0.38
649.791	-6.38
649.824	19.62
649.857	8.62
649.89	-4.38
649.924	-14.38
649.957	-8.38
649.99	-27.38
650.023	-5.38
650.057	-10.38
650.09	0.62
650.123	-2.38
650.157	5.62
650.19	5.62
650.223	1.62
650.256	-2.38
650.29	-13.38
650.323	3.62
650.356	-11.38
650.389	-20.38
650.423	-12.38
650.456	-10.38
650.489	-14.38
650.522	6.62
650.555	5.62
650.589	1.62
650.622	-4.38
650.655	12.62
650.688	-9.38
650.721	3.62
650.755	5.62
650.788	-3.38
650.821	-9.38
650.854	-11.38
650.887	-7.38
650.921	-13.38
650.954	-24.38
650.987	-9.38
651.02	-4.38
651.053	-18.38
651.087	-15.38
651.12	7.62
651.153	9.62
651.186	-5.38
651.219	-34.38
651.252	15.62
651.286	14.62
651.319	-11.38
651.352	-14.38
651.385	-7.38
651.418	-1.38
651.451	7.62
651.484	4.62
651.518	-3.38
651.551	15.62
651.584	2.62
651.617	11.62
651.65	-0.38
651.683	13.62
651.716	-16.38
651.749	-15.38
651.783	-7.38
651.816	2.62
651.849	12.62
651.882	0.62
651.915	-10.38
651.948	-11.38
651.981	-16.38
652.014	-16.38
652.047	-16.38
652.08	-2.38
652.114	4.62
652.147	-4.38
652.18	1.62
652.213	14.62
652.246	-0.38
652.279	-22.38
652.312	1.62
652.345	-17.38
652.378	6.62
652.411	10.62
652.444	-3.38
652.477	-7.38
652.51	-8.38
652.543	-21.38
652.576	-1.38
652.609	-20.38
652.642	-9.38
652.675	9.62
652.709	-3.38
652.742	4.62
652.775	-6.38
652.808	4.62
652.841	-3.38
652.874	5.62
652.907	8.62
652.94	-8.38
652.973	-12.38
653.006	-8.38
653.039	-16.38
653.072	-1.38
653.105	2.62
653.138	-16.38
653.171	-13.38
653.204	-3.38
653.237	1.62
653.27	-14.38
653.303	-4.38
653.336	-13.38
653.368	-22.38
653.401	-18.38
653.434	-1.38
653.467	-4.38
653.5	-11.38
653.533	-17.38
653.566	-3.38
653.599	-2.38
653.632	-7.38
653.665	-3.38
653.698	-22.38
653.731	-26.38
653.764	4.62
653.797	-6.38
653.83	4.62
653.863	8.62
653.896	-5.38
653.929	-7.38
653.961	-3.38
653.994	-11.38
654.027	-20.38
654.06	-4.38
654.093	-2.38
654.126	-2.38
654.159	-15.38
654.192	-3.38
654.225	-6.38
654.258	-11.38
654.29	-8.38
654.323	-0.38
654.356	-6.38
654.389	-4.38
654.422	4.62
654.455	8.62
654.488	2.62
654.521	-16.38
654.553	-4.38
654.586	8.62
654.619	-6.38
654.652	-3.38
654.685	16.62
654.718	-5.38
654.751	4.62
654.783	-16.38
654.816	26.62
654.849	-1.38
654.882	-2.38
654.915	-6.38
654.948	2.62
654.98	-12.38
655.013	-16.38
655.046	-14.38
655.079	-10.38
655.112	3.62
655.144	-6.38
655.177	16.62
655.21	0.62
655.243	11.62
655.276	-7.38
655.308	-8.38
655.341	-18.38
655.374	-11.38
655.407	-10.38
655.44	-6.38
655.472	14.62
655.505	1.62
655.538	-5.38
655.571	-4.38
655.603	-17.38
655.636	-15.38
655.669	-6.38
655.702	-16.38
655.734	-15.38
655.767	-10.38
655.8	3.62
655.833	-2.38
655.865	5.62
655.898	-9.38
655.931	-6.38
655.964	-12.38
655.996	-5.38
656.029	3.62
656.062	-16.38
656.095	-9.38
656.127	-15.38
656.16	-11.38
656.193	-10.38
656.225	-14.38
656.258	-10.38
656.291	1.62
656.324	8.62
656.356	5.62
656.389	5.62
656.422	16.62
656.454	-0.38
656.487	9.62
656.52	6.62
656.552	-8.38
656.585	-12.38
656.618	1.62
656.65	20.62
656.683	0.62
656.716	-9.38
656.748	-15.38
656.781	-1.38
656.814	-9.38
656.846	-3.38
656.879	-6.38
656.912	-3.38
656.944	-16.38
656.977	-14.38
657.01	-3.38
657.042	11.62
657.075	8.62
657.108	-10.38
657.14	-3.38
657.173	27.62
657.205	26.62
657.238	5.62
657.271	-15.38
657.303	-13.38
657.336	-15.38
657.369	-10.38
657.401	-5.38
657.434	6.62
657.466	8.62
657.499	-6.38
657.532	-8.38
657.564	-16.38
657.597	-21.38
657.629	4.62
657.662	-4.38
657.694	-2.38
657.727	-10.38
657.76	12.62
657.792	5.62
657.825	0.62
657.857	3.62
657.89	0.62
657.922	-4.38
657.955	-11.38
657.987	-18.38
658.02	12.62
658.053	6.62
658.085	10.62
658.118	2.62
658.15	11.62
658.183	9.62
658.215	-3.38
658.248	-11.38
658.28	-10.38
658.313	14.62
658.345	-7.38
658.378	-1.38
658.41	-29.38
658.443	-5.38
658.475	-17.38
658.508	1.62
658.54	4.62
658.573	-14.38
658.605	-20.38
658.638	-13.38
658.67	-3.38
658.703	8.62
658.735	-1.38
658.768	4.62
658.8	-10.38
658.833	-0.38
658.865	-6.38
658.898	-1.38
658.93	-7.38
658.963	-12.38
658.995	-14.38
659.028	-11.38
659.06	-12.38
659.092	-20.38
659.125	-3.38
659.157	28.62
659.19	-20.38
659.222	-8.38
659.255	-11.38
659.287	-3.38
659.32	4.62
659.352	-9.38
659.384	-8.38
659.417	-25.38
659.449	-15.38
659.482	-7.38
659.514	-6.38
659.546	-22.38
659.579	-19.38
659.611	3.62
659.644	-6.38
659.676	-13.38
659.708	-11.38
659.741	-6.38
659.773	0.62
659.806	-2.38
659.838	-0.38
659.87	2.62
659.903	-6.38
659.935	-6.38
659.967	-6.38
660	8.62
660.032	-38.38
660.065	9.62
660.097	6.62
660.129	-0.38
660.162	-14.38
660.194	15.62
660.226	-1.38
660.259	-6.38
660.291	-0.38
660.323	-9.38
660.356	-7.38
660.388	-18.38
660.42	1.62
660.453	-3.38
660.485	1.62
660.517	2.62
660.55	3.62
660.582	-9.38
660.614	-3.38
660.647	-19.38
660.679	-19.38
660.711	11.62
660.743	-26.38
660.776	-31.38
660.808	-5.38
660.84	-20.38
660.873	-1.38
660.905	2.62
660.937	-0.38
660.969	-7.38
661.002	3.62
661.034	16.62
661.066	-15.38
661.099	-5.38
661.131	9.62
661.163	-3.38
661.195	-7.38
661.228	13.62
661.26	0.62
661.292	-14.38
661.324	-10.38
661.357	-11.38
661.389	-2.38
661.421	-3.38
661.453	4.62
661.485	-1.38
661.518	-4.38
661.55	-5.38
661.582	-3.38
661.614	-20.38
661.647	-0.38
661.679	-12.38
661.711	-6.38
661.743	-23.38
661.775	-2.38
661.808	5.62
661.84	-5.38
661.872	-1.38
661.904	-12.38
661.936	12.62
661.969	-8.38
662.001	-19.38
662.033	-16.38
662.065	-14.38
662.097	11.62
662.129	12.62
662.162	-12.38
662.194	-1.38
662.226	3.62
662.258	1.62
662.29	0.62
662.322	-14.38
662.355	-13.38
662.387	1.62
662.419	-0.38
662.451	11.62
662.483	-3.38
662.515	1.62
662.547	-3.38
662.58	-19.38
662.612	-13.38
662.644	-0.38
662.676	-9.38
662.708	11.62
662.74	-5.38
662.772	5.62
662.804	4.62
662.836	3.62
662.869	-13.38
662.901	8.62
662.933	9.62
662.965	16.62
662.997	-1.38
663.029	-5.38
663.061	-10.38
663.093	-7.38
663.125	-10.38
663.157	-11.38
663.189	-8.38
663.221	14.62
663.254	1.62
663.286	3.62
663.318	0.62
663.35	-5.38
663.382	4.62
663.414	-1.38
663.446	-5.38
663.478	-12.38
663.51	12.62
663.542	-9.38
663.574	1.62
663.606	-12.38
663.638	-29.38
663.67	-19.38
663.702	-9.38
663.734	13.62
663.766	-7.38
663.798	0.62
663.83	-2.38
663.862	1.62
663.894	4.62
663.926	-7.38
663.958	16.62
663.99	-9.38
664.022	-7.38
664.054	8.62
664.086	-15.38
664.118	-6.38
664.15	-5.38
664.182	-14.38
664.214	-24.38
664.246	-5.38
664.278	11.62
664.31	18.62
664.342	4.62
664.374	11.62
664.406	-1.38
664.438	-2.38
664.47	7.62
664.502	6.62
664.534	-20.38
664.566	-16.38
664.598	-7.38
664.63	-14.38
664.662	-6.38
664.693	-2.38
664.725	-17.38
664.757	-6.38
664.789	-16.38
664.821	-2.38
664.853	17.62
664.885	-6.38
664.917	-7.38
664.949	8.62
664.981	15.62
665.013	0.62
665.045	-31.38
665.076	-18.38
665.108	4.62
665.14	-7.38
665.172	4.62
665.204	-3.38
665.236	-19.38
665.268	16.62
665.3	-6.38
665.331	-10.38
665.363	-4.38
665.395	-11.38
665.427	-10.38
665.459	11.62
665.491	-1.38
665.523	-3.38
665.555	0.62
665.586	7.62
665.618	2.62
665.65	-20.38
665.682	3.62
665.714	-13.38
665.746	-22.38
665.777	-16.38
665.809	-3.38
665.841	8.62
665.873	-5.38
665.905	-26.38
665.937	4.62
665.968	7.62
666	-10.38
666.032	-10.38
666.064	-8.38
666.096	-18.38
666.127	-12.38
666.159	13.62
666.191	2.62
666.223	-1.38
666.255	2.62
666.286	3.62
666.318	-0.38
666.35	19.62
666.382	-9.38
666.413	-14.38
666.445	-9.38
666.477	-23.38
666.509	-4.38
666.54	-6.38
666.572	-22.38
666.604	-5.38
666.636	-3.38
666.667	-0.38
666.699	5.62
666.731	-5.38
666.763	-5.38
666.794	-12.38
666.826	-5.38
666.858	-10.38
666.89	6.62
666.921	5.62
666.953	-4.38
666.985	14.62
667.017	13.62
667.048	-7.38
667.08	-17.38
667.112	-11.38
667.143	-16.38
667.175	-3.38
667.207	12.62
667.238	9.62
667.27	13.62
667.302	-1.38
667.334	0.62
667.365	14.62
667.397	-14.38
667.429	-22.38
667.46	5.62
667.492	4.62
667.524	-9.38
667.555	0.62
667.587	9.62
667.619	10.62
667.65	-7.38
667.682	11.62
667.714	-7.38
667.745	-5.38
667.777	-5.38
667.808	-14.38
667.84	-0.38
667.872	0.62
667.903	26.62
667.935	-2.38
667.967	-24.38
667.998	3.62
668.03	5.62
668.061	5.62
668.093	-1.38
668.125	-11.38
668.156	11.62
668.188	4.62
668.22	-15.38
668.251	3.62
668.283	29.62
668.314	10.62
668.346	-11.38
668.377	-1.38
668.409	4.62
668.441	16.62
668.472	-3.38
668.504	-2.38
668.535	0.62
668.567	12.62
668.599	11.62
668.63	0.62
668.662	0.62
668.693	32.62
668.725	-11.38
668.756	8.62
668.788	4.62
668.819	-2.38
668.851	-7.38
668.882	-3.38
668.914	-3.38
668.946	-3.38
668.977	-12.38
669.009	-3.38
669.04	-20.38
669.072	1.62
669.103	-5.38
669.135	0.62
669.166	4.62
669.198	-2.38
669.229	5.62
669.261	-11.38
669.292	-15.38
669.324	-7.38
669.355	3.62
669.387	-6.38
669.418	-10.38
669.45	-27.38
669.481	-9.38
669.513	-9.38
669.544	4.62
669.576	-7.38
669.607	-11.38
669.639	2.62
669.67	-20.38
669.701	-0.38
669.733	-0.38
669.764	-9.38
669.796	-1.38
669.827	-21.38
669.859	-11.38
669.89	-2.38
669.922	15.62
669.953	-12.38
669.985	-12.38
670.016	-5.38
670.047	8.62
670.079	-3.38
670.11	12.62
670.142	4.62
670.173	2.62
670.204	-5.38
670.236	7.62
670.267	-3.38
670.299	2.62
670.33	-2.38
670.362	1.62
670.393	-22.38
670.424	-8.38
670.456	-24.38
670.487	-7.38
670.518	-11.38
670.55	17.62
670.581	0.62
670.613	-0.38
670.644	-6.38
670.675	-1.38
670.707	-7.38
670.738	-5.38
670.769	-13.38
670.801	-10.38
670.832	0.62
670.864	-10.38
670.895	12.62
670.926	-5.38
670.958	-10.38
670.989	-2.38
671.02	-15.38
671.052	-0.38
671.083	5.62
671.114	1.62
671.146	4.62
671.177	3.62
671.208	-14.38
671.24	-15.38
671.271	-7.38
671.302	-4.38
671.333	-5.38
671.365	-17.38
671.396	-2.38
671.427	7.62
671.459	10.62
671.49	23.62
671.521	-12.38
671.553	-6.38
671.584	-10.38
671.615	-18.38
671.646	-6.38
671.678	2.62
671.709	-3.38
671.74	-25.38
671.771	-12.38
671.803	-16.38
671.834	-7.38
671.865	-0.38
671.896	-2.38
671.928	-9.38
671.959	-5.38
671.99	-13.38
672.021	3.62
672.053	5.62
672.084	5.62
672.115	6.62
672.146	-15.38
672.178	-21.38
672.209	-11.38
672.24	-11.38
672.271	1.62
672.303	-10.38
672.334	6.62
672.365	-21.38
672.396	-14.38
672.427	0.62
672.459	-9.38
672.49	21.62
672.521	8.62
672.552	4.62
672.583	2.62
672.615	-5.38
672.646	3.62
672.677	-14.38
672.708	-2.38
672.739	2.62
672.77	-4.38
672.802	9.62
672.833	-0.38
672.864	-3.38
672.895	-10.38
672.926	4.62
672.957	-21.38
672.989	-4.38
673.02	0.62
673.051	-6.38
673.082	8.62
673.113	-6.38
673.144	18.62
673.175	1.62
673.206	-14.38
673.238	-9.38
673.269	-21.38
673.3	-20.38
673.331	1.62
673.362	-6.38
673.393	-9.38
673.424	-2.38
673.455	7.62
673.487	-6.38
673.518	-4.38
673.549	-19.38
673.58	-7.38
673.611	-3.38
673.642	-10.38
673.673	-24.38
673.704	-11.38
673.735	1.62
673.766	-10.38
673.797	3.62
673.828	-0.38
673.86	-18.38
673.891	-15.38
673.922	-12.38
673.953	-10.38
673.984	-21.38
674.015	0.62
674.046	-14.38
674.077	2.62
674.108	-31.38
674.139	-16.38
674.17	-13.38
674.201	-8.38
674.232	-7.38
674.263	-6.38
674.294	4.62
674.325	-13.38
674.356	18.62
674.387	-1.38
674.418	-2.38
674.449	-4.38
674.48	0.62
674.511	-6.38
674.542	-4.38
674.573	1.62
674.604	-1.38
674.635	-12.38
674.666	-0.38
674.697	-4.38
674.728	-17.38
674.759	-11.38
674.79	-9.38
674.821	-1.38
674.852	-2.38
674.883	-14.38
674.914	-10.38
674.945	-11.38
674.976	-2.38
675.007	-6.38
675.038	-6.38
675.069	-8.38
675.1	-4.38
675.131	2.62
675.162	-0.38
675.193	-2.38
675.224	-6.38
675.254	0.62
675.285	5.62
675.316	6.62
675.347	-8.38
675.378	-23.38
675.409	-15.38
675.44	-5.38
675.471	-3.38
675.502	-8.38
675.533	-4.38
675.564	12.62
675.595	-20.38
675.625	2.62
675.656	-7.38
675.687	-13.38
675.718	-9.38
675.749	-2.38
675.78	-14.38
675.811	-19.38
675.842	0.62
675.873	-7.38
675.903	-9.38
675.934	6.62
675.965	9.62
675.996	-5.38
676.027	13.62
676.058	-2.38
676.089	-14.38
676.119	-6.38
676.15	-10.38
676.181	-6.38
676.212	-6.38
676.243	-5.38
676.274	-7.38
676.304	-13.38
676.335	-24.38
676.366	-2.38
676.397	-13.38
676.428	-6.38
676.459	-3.38
676.489	6.62
676.52	-4.38
676.551	-2.38
676.582	-6.38
676.613	12.62
676.643	-12.38
676.674	8.62
676.705	-11.38
676.736	-15.38
676.767	3.62
676.797	2.62
676.828	-2.38
676.859	-4.38
676.89	-11.38
676.92	-17.38
676.951	6.62
676.982	14.62
677.013	0.62
677.044	18.62
677.074	24.62
677.105	-18.38
677.136	1.62
677.167	-0.38
677.197	-2.38
677.228	-12.38
677.259	-5.38
677.289	-4.38
677.32	-22.38
677.351	-16.38
677.382	-8.38
677.412	2.62
677.443	-2.38
677.474	-16.38
677.505	-6.38
677.535	-4.38
677.566	1.62
677.597	-23.38
677.627	-17.38
677.658	12.62
677.689	-1.38
677.72	0.62
677.75	-8.38
677.781	-14.38
677.812	-7.38
677.842	4.62
677.873	-6.38
677.904	1.62
677.934	-9.38
677.965	-2.38
677.996	-20.38
678.026	-8.38
678.057	2.62
678.088	-12.38
678.118	4.62
678.149	-1.38
678.18	-8.38
678.21	9.62
678.241	-3.38
678.272	-3.38
678.302	5.62
678.333	3.62
678.363	6.62
678.394	2.62
678.425	-15.38
678.455	-1.38
678.486	17.62
678.517	-24.38
678.547	-17.38
678.578	-7.38
678.608	-8.38
678.639	6.62
678.67	-6.38
678.7	-8.38
678.731	-17.38
678.761	-17.38
678.792	-7.38
678.823	1.62
678.853	-7.38
678.884	-13.38
678.914	0.62
678.945	-1.38
678.975	-0.38
679.006	2.62
679.037	-7.38
679.067	1.62
679.098	-2.38
679.128	-12.38
679.159	-2.38
679.189	13.62
679.22	-0.38
679.25	-2.38
679.281	-1.38
679.312	-6.38
679.342	-2.38
679.373	23.62
679.403	-4.38
679.434	22.62
679.464	-1.38
679.495	-16.38
679.525	-3.38
679.556	4.62
679.586	31.62
679.617	5.62
679.647	2.62
679.678	-1.38
679.708	3.62
679.739	-5.38
679.769	-0.38
679.8	-10.38
679.83	4.62
679.861	-3.38
679.891	-6.38
679.922	-21.38
679.952	4.62
679.983	3.62
680.013	-3.38
680.044	-11.38
680.074	10.62
680.105	5.62
680.135	-3.38
680.165	-3.38
680.196	7.62
680.226	1.62
680.257	5.62
680.287	10.62
680.318	-4.38
680.348	-14.38
680.379	13.62
680.409	-4.38
680.439	-3.38
680.47	-10.38
680.5	0.62
680.531	-8.38
680.561	8.62
680.592	-3.38
680.622	12.62
680.652	-17.38
680.683	2.62
680.713	-14.38
680.744	-19.38
680.774	-6.38
680.804	3.62
680.835	-4.38
680.865	-6.38
680.896	20.62
680.926	19.62
680.956	-1.38
680.987	6.62
681.017	-15.38
681.047	16.62
681.078	-4.38
681.108	-14.38
681.139	-11.38
681.169	-5.38
681.199	0.62
681.23	6.62
681.26	-16.38
681.29	-10.38
681.321	-26.38
681.351	-2.38
681.381	-8.38
681.412	6.62
681.442	1.62
681.472	3.62
681.503	6.62
681.533	17.62
681.563	-3.38
681.594	-9.38
681.624	-3.38
681.654	-10.38
681.685	-1.38
681.715	-4.38
681.745	-2.38
681.775	-7.38
681.806	-7.38
681.836	10.62
681.866	-4.38
