Data from HighRes_mercury_15_13_11_07_2024_HR4C61891__89__15-14-32-085.txt Node

Date: Thu Nov 07 15:14:32 EST 2024
User: crc00042
Spectrometer: HR4C6189
Trigger mode: 4
Integration Time (sec): 1.000000E-1
Scans to average: 1
Electric dark correction enabled: true
Nonlinearity correction enabled: false
Boxcar width: 0
XAxis mode: Wavelengths
Number of Pixels in Spectrum: 3648
>>>>>Begin Spectral Data<<<<<
639.567	-44.85
639.602	-44.85
639.636	-44.85
639.67	-30.85
639.704	-17.85
639.738	-1.85
639.773	-2.85
639.807	-11.85
639.841	14.15
639.875	9.15
639.909	-2.85
639.943	-6.85
639.978	-9.85
640.012	4.15
640.046	25.15
640.08	1.15
640.114	-0.85
640.148	-16.85
640.182	-11.85
640.217	-0.85
640.251	28.15
640.285	15.15
640.319	-6.85
640.353	1.15
640.387	2.15
640.421	-6.85
640.455	-8.85
640.49	-8.85
640.524	3.15
640.558	7.15
640.592	-2.85
640.626	8.15
640.66	12.15
640.694	1.15
640.728	-2.85
640.762	18.15
640.796	21.15
640.83	10.15
640.865	-18.85
640.899	-5.85
640.933	10.15
640.967	-4.85
641.001	2.15
641.035	0.15
641.069	9.15
641.103	0.15
641.137	-4.85
641.171	-1.85
641.205	0.15
641.239	-1.85
641.273	11.15
641.307	4.15
641.341	5.15
641.375	10.15
641.409	-0.85
641.443	-1.85
641.477	1.15
641.511	20.15
641.545	7.15
641.579	3.15
641.614	2.15
641.648	12.15
641.682	-5.85
641.716	16.15
641.75	14.15
641.784	2.15
641.818	-0.85
641.852	-4.85
641.886	-7.85
641.919	14.15
641.953	-1.85
641.987	-5.85
642.021	3.15
642.055	2.15
642.089	0.15
642.123	11.15
642.157	2.15
642.191	-4.85
642.225	11.15
642.259	-14.85
642.293	11.15
642.327	0.15
642.361	0.15
642.395	1.15
642.429	19.15
642.463	-0.85
642.497	14.15
642.531	7.15
642.565	-5.85
642.599	4.15
642.633	-12.85
642.666	24.15
642.7	13.15
642.734	11.15
642.768	-3.85
642.802	9.15
642.836	-3.85
642.87	-3.85
642.904	8.15
642.938	-0.85
642.972	10.15
643.005	0.15
643.039	10.15
643.073	-5.85
643.107	3.15
643.141	7.15
643.175	-3.85
643.209	-0.85
643.243	-2.85
643.276	-5.85
643.31	-2.85
643.344	-7.85
643.378	-1.85
643.412	-1.85
643.446	8.15
643.48	-3.85
643.513	13.15
643.547	-3.85
643.581	-13.85
643.615	18.15
643.649	-7.85
643.683	-0.85
643.716	11.15
643.75	-3.85
643.784	-10.85
643.818	1.15
643.852	-14.85
643.886	0.15
643.919	1.15
643.953	-15.85
643.987	-5.85
644.021	22.15
644.055	1.15
644.088	-10.85
644.122	-12.85
644.156	-5.85
644.19	6.15
644.224	-14.85
644.257	14.15
644.291	21.15
644.325	-2.85
644.359	-10.85
644.392	6.15
644.426	-0.85
644.46	3.15
644.494	4.15
644.527	-20.85
644.561	-0.85
644.595	-12.85
644.629	-14.85
644.662	-13.85
644.696	9.15
644.73	-10.85
644.764	4.15
644.797	-1.85
644.831	-0.85
644.865	22.15
644.899	4.15
644.932	16.15
644.966	-6.85
645	16.15
645.033	3.15
645.067	-2.85
645.101	3.15
645.135	18.15
645.168	10.15
645.202	1.15
645.236	-16.85
645.269	-1.85
645.303	-0.85
645.337	-16.85
645.37	-11.85
645.404	0.15
645.438	-11.85
645.471	-14.85
645.505	-8.85
645.539	1.15
645.572	-13.85
645.606	-6.85
645.64	-0.85
645.673	7.15
645.707	30.15
645.741	-2.85
645.774	-0.85
645.808	16.15
645.842	-8.85
645.875	11.15
645.909	-10.85
645.943	-20.85
645.976	-9.85
646.01	8.15
646.043	4.15
646.077	-11.85
646.111	3.15
646.144	8.15
646.178	13.15
646.212	4.15
646.245	-5.85
646.279	3.15
646.312	10.15
646.346	6.15
646.38	7.15
646.413	-16.85
646.447	2.15
646.48	-0.85
646.514	13.15
646.547	-4.85
646.581	-13.85
646.615	1.15
646.648	-4.85
646.682	-4.85
646.715	-9.85
646.749	7.15
646.782	-3.85
646.816	-6.85
646.85	-7.85
646.883	-19.85
646.917	8.15
646.95	-7.85
646.984	-0.85
647.017	-0.85
647.051	3.15
647.084	-5.85
647.118	1.15
647.151	1.15
647.185	7.15
647.218	-9.85
647.252	0.15
647.285	-15.85
647.319	3.15
647.353	-5.85
647.386	27.15
647.42	-4.85
647.453	3.15
647.487	-1.85
647.52	2.15
647.553	2.15
647.587	-6.85
647.62	-5.85
647.654	-0.85
647.687	-6.85
647.721	3.15
647.754	-0.85
647.788	6.15
647.821	0.15
647.855	6.15
647.888	20.15
647.922	6.15
647.955	10.15
647.989	-1.85
648.022	-3.85
648.055	2.15
648.089	-8.85
648.122	19.15
648.156	-8.85
648.189	-8.85
648.223	-3.85
648.256	15.15
648.29	6.15
648.323	0.15
648.356	5.15
648.39	-3.85
648.423	23.15
648.457	7.15
648.49	18.15
648.523	-1.85
648.557	-0.85
648.59	-3.85
648.624	4.15
648.657	-9.85
648.69	20.15
648.724	8.15
648.757	24.15
648.791	0.15
648.824	1.15
648.857	15.15
648.891	18.15
648.924	0.15
648.957	17.15
648.991	-9.85
649.024	3.15
649.057	-15.85
649.091	-2.85
649.124	-1.85
649.158	6.15
649.191	29.15
649.224	15.15
649.258	16.15
649.291	18.15
649.324	2.15
649.358	-2.85
649.391	-5.85
649.424	0.15
649.458	-2.85
649.491	11.15
649.524	-8.85
649.557	-13.85
649.591	-23.85
649.624	6.15
649.657	-12.85
649.691	-3.85
649.724	7.15
649.757	5.15
649.791	8.15
649.824	9.15
649.857	6.15
649.89	-10.85
649.924	-24.85
649.957	-0.85
649.99	-2.85
650.023	-0.85
650.057	-8.85
650.09	-6.85
650.123	-4.85
650.157	2.15
650.19	22.15
650.223	-0.85
650.256	-10.85
650.29	-6.85
650.323	0.15
650.356	9.15
650.389	-10.85
650.423	-8.85
650.456	-14.85
650.489	-10.85
650.522	10.15
650.555	16.15
650.589	3.15
650.622	-3.85
650.655	14.15
650.688	12.15
650.721	-13.85
650.755	3.15
650.788	0.15
650.821	-7.85
650.854	-4.85
650.887	1.15
650.921	6.15
650.954	-8.85
650.987	-2.85
651.02	-11.85
651.053	-5.85
651.087	-5.85
651.12	24.15
651.153	10.15
651.186	0.15
651.219	-2.85
651.252	-0.85
651.286	7.15
651.319	-0.85
651.352	0.15
651.385	11.15
651.418	8.15
651.451	6.15
651.484	5.15
651.518	-18.85
651.551	15.15
651.584	-6.85
651.617	15.15
651.65	0.15
651.683	12.15
651.716	-14.85
651.749	-28.85
651.783	-7.85
651.816	-5.85
651.849	1.15
651.882	5.15
651.915	-6.85
651.948	-1.85
651.981	-7.85
652.014	-37.85
652.047	-14.85
652.08	-8.85
652.114	4.15
652.147	1.15
652.18	11.15
652.213	32.15
652.246	10.15
652.279	-11.85
652.312	2.15
652.345	-10.85
652.378	4.15
652.411	24.15
652.444	-1.85
652.477	-5.85
652.51	-6.85
652.543	-11.85
652.576	-8.85
652.609	-16.85
652.642	-23.85
652.675	8.15
652.709	2.15
652.742	2.15
652.775	-6.85
652.808	10.15
652.841	4.15
652.874	-5.85
652.907	8.15
652.94	-4.85
652.973	-16.85
653.006	-5.85
653.039	-6.85
653.072	-3.85
653.105	2.15
653.138	-13.85
653.171	-2.85
653.204	2.15
653.237	-1.85
653.27	-9.85
653.303	7.15
653.336	4.15
653.368	-22.85
653.401	3.15
653.434	-1.85
653.467	-9.85
653.5	0.15
653.533	-11.85
653.566	-4.85
653.599	-2.85
653.632	11.15
653.665	2.15
653.698	-9.85
653.731	-17.85
653.764	-3.85
653.797	-7.85
653.83	-9.85
653.863	0.15
653.896	-10.85
653.929	0.15
653.961	-2.85
653.994	2.15
654.027	-14.85
654.06	-6.85
654.093	0.15
654.126	3.15
654.159	-18.85
654.192	-1.85
654.225	-3.85
654.258	-0.85
654.29	-9.85
654.323	-14.85
654.356	0.15
654.389	-3.85
654.422	-6.85
654.455	-3.85
654.488	10.15
654.521	-5.85
654.553	2.15
654.586	0.15
654.619	-8.85
654.652	-21.85
654.685	-8.85
654.718	5.15
654.751	-0.85
654.783	2.15
654.816	2.15
654.849	-3.85
654.882	3.15
654.915	-18.85
654.948	-3.85
654.98	-13.85
655.013	-1.85
655.046	-13.85
655.079	-17.85
655.112	-8.85
655.144	-16.85
655.177	0.15
655.21	12.15
655.243	16.15
655.276	-5.85
655.308	-2.85
655.341	-26.85
655.374	-20.85
655.407	-11.85
655.44	-2.85
655.472	-0.85
655.505	-15.85
655.538	-3.85
655.571	-3.85
655.603	-0.85
655.636	-20.85
655.669	13.15
655.702	-7.85
655.734	-3.85
655.767	-23.85
655.8	9.15
655.833	2.15
655.865	10.15
655.898	-9.85
655.931	-9.85
655.964	-10.85
655.996	-11.85
656.029	19.15
656.062	-6.85
656.095	-4.85
656.127	-8.85
656.16	-0.85
656.193	-6.85
656.225	3.15
656.258	1.15
656.291	3.15
656.324	-2.85
656.356	9.15
656.389	4.15
656.422	3.15
656.454	-1.85
656.487	0.15
656.52	3.15
656.552	4.15
656.585	10.15
656.618	15.15
656.65	11.15
656.683	-9.85
656.716	-1.85
656.748	-3.85
656.781	-15.85
656.814	-13.85
656.846	19.15
656.879	-2.85
656.912	-2.85
656.944	-20.85
656.977	-12.85
657.01	-1.85
657.042	2.15
657.075	0.15
657.108	-9.85
657.14	6.15
657.173	28.15
657.205	31.15
657.238	6.15
657.271	9.15
657.303	-18.85
657.336	6.15
657.369	9.15
657.401	6.15
657.434	7.15
657.466	0.15
657.499	3.15
657.532	-4.85
657.564	-7.85
657.597	-11.85
657.629	2.15
657.662	-12.85
657.694	7.15
657.727	-18.85
657.76	8.15
657.792	-7.85
657.825	-13.85
657.857	-8.85
657.89	-12.85
657.922	-1.85
657.955	-13.85
657.987	-1.85
658.02	9.15
658.053	4.15
658.085	10.15
658.118	6.15
658.15	-0.85
658.183	19.15
658.215	-4.85
658.248	2.15
658.28	4.15
658.313	11.15
658.345	3.15
658.378	-9.85
658.41	-11.85
658.443	11.15
658.475	-1.85
658.508	-8.85
658.54	-11.85
658.573	-12.85
658.605	6.15
658.638	-12.85
658.67	3.15
658.703	-0.85
658.735	-12.85
658.768	12.15
658.8	-2.85
658.833	8.15
658.865	8.15
658.898	1.15
658.93	-13.85
658.963	-1.85
658.995	-33.85
659.028	6.15
659.06	-9.85
659.092	3.15
659.125	-9.85
659.157	0.15
659.19	-4.85
659.222	-10.85
659.255	4.15
659.287	-7.85
659.32	-11.85
659.352	-4.85
659.384	8.15
659.417	-9.85
659.449	4.15
659.482	-4.85
659.514	-13.85
659.546	-8.85
659.579	-15.85
659.611	-6.85
659.644	-10.85
659.676	-9.85
659.708	-9.85
659.741	-7.85
659.773	5.15
659.806	-0.85
659.838	-6.85
659.87	-0.85
659.903	-1.85
659.935	14.15
659.967	-0.85
660	-4.85
660.032	-13.85
660.065	8.15
660.097	10.15
660.129	-0.85
660.162	-19.85
660.194	18.15
660.226	-6.85
660.259	3.15
660.291	9.15
660.323	-0.85
660.356	-13.85
660.388	-3.85
660.42	-4.85
660.453	15.15
660.485	5.15
660.517	12.15
660.55	15.15
660.582	0.15
660.614	9.15
660.647	-3.85
660.679	-19.85
660.711	14.15
660.743	-6.85
660.776	-15.85
660.808	-8.85
660.84	-4.85
660.873	-0.85
660.905	-1.85
660.937	2.15
660.969	16.15
661.002	-7.85
661.034	5.15
661.066	4.15
661.099	-3.85
661.131	13.15
661.163	6.15
661.195	-8.85
661.228	-4.85
661.26	1.15
661.292	-12.85
661.324	11.15
661.357	-2.85
661.389	12.15
661.421	10.15
661.453	-4.85
661.485	0.15
661.518	4.15
661.55	-11.85
661.582	-4.85
661.614	-8.85
661.647	-0.85
661.679	6.15
661.711	9.15
661.743	-1.85
661.775	6.15
661.808	14.15
661.84	-9.85
661.872	-1.85
661.904	-1.85
661.936	1.15
661.969	-7.85
662.001	-1.85
662.033	-16.85
662.065	-1.85
662.097	-2.85
662.129	4.15
662.162	10.15
662.194	7.15
662.226	-7.85
662.258	2.15
662.29	-5.85
662.322	-18.85
662.355	-16.85
662.387	34.15
662.419	2.15
662.451	-1.85
662.483	-0.85
662.515	1.15
662.547	5.15
662.58	-17.85
662.612	-1.85
662.644	-10.85
662.676	-4.85
662.708	17.15
662.74	-7.85
662.772	9.15
662.804	6.15
662.836	17.15
662.869	9.15
662.901	13.15
662.933	-10.85
662.965	6.15
662.997	-6.85
663.029	-12.85
663.061	-14.85
663.093	-11.85
663.125	7.15
663.157	11.15
663.189	-10.85
663.221	5.15
663.254	3.15
663.286	2.15
663.318	7.15
663.35	2.15
663.382	-10.85
663.414	12.15
663.446	9.15
663.478	-10.85
663.51	14.15
663.542	-6.85
663.574	-15.85
663.606	-3.85
663.638	-22.85
663.67	-0.85
663.702	-33.85
663.734	6.15
663.766	15.15
663.798	-0.85
663.83	9.15
663.862	21.15
663.894	7.15
663.926	-6.85
663.958	6.15
663.99	-4.85
664.022	4.15
664.054	7.15
664.086	-7.85
664.118	-4.85
664.15	0.15
664.182	0.15
664.214	10.15
664.246	28.15
664.278	-24.85
664.31	15.15
664.342	-10.85
664.374	-16.85
664.406	-3.85
664.438	-10.85
664.47	14.15
664.502	3.15
664.534	4.15
664.566	-13.85
664.598	7.15
664.63	-5.85
664.662	15.15
664.693	-9.85
664.725	-8.85
664.757	-11.85
664.789	-5.85
664.821	18.15
664.853	15.15
664.885	4.15
664.917	-12.85
664.949	12.15
664.981	12.15
665.013	-13.85
665.045	-14.85
665.076	-10.85
665.108	-16.85
665.14	-3.85
665.172	2.15
665.204	-0.85
665.236	1.15
665.268	4.15
665.3	-10.85
665.331	-19.85
665.363	12.15
665.395	-9.85
665.427	3.15
665.459	-4.85
665.491	-4.85
665.523	-4.85
665.555	-17.85
665.586	11.15
665.618	4.15
665.65	-16.85
665.682	6.15
665.714	11.15
665.746	-10.85
665.777	-3.85
665.809	-11.85
665.841	-9.85
665.873	5.15
665.905	0.15
665.937	1.15
665.968	2.15
666	-5.85
666.032	14.15
666.064	-4.85
666.096	-5.85
666.127	-0.85
666.159	-1.85
666.191	0.15
666.223	-4.85
666.255	-2.85
666.286	6.15
666.318	0.15
666.35	-1.85
666.382	-0.85
666.413	-5.85
666.445	-18.85
666.477	-8.85
666.509	-21.85
666.54	4.15
666.572	-0.85
666.604	-10.85
666.636	-2.85
666.667	13.15
666.699	20.15
666.731	7.15
666.763	-3.85
666.794	-11.85
666.826	-0.85
666.858	-13.85
666.89	0.15
666.921	1.15
666.953	8.15
666.985	6.15
667.017	9.15
667.048	7.15
667.08	-8.85
667.112	-6.85
667.143	-13.85
667.175	-1.85
667.207	-2.85
667.238	3.15
667.27	12.15
667.302	-3.85
667.334	8.15
667.365	21.15
667.397	3.15
667.429	0.15
667.46	4.15
667.492	-0.85
667.524	-1.85
667.555	-3.85
667.587	2.15
667.619	-12.85
667.65	-16.85
667.682	5.15
667.714	-3.85
667.745	11.15
667.777	-2.85
667.808	8.15
667.84	15.15
667.872	9.15
667.903	26.15
667.935	6.15
667.967	-7.85
667.998	-2.85
668.03	-8.85
668.061	1.15
668.093	-8.85
668.125	2.15
668.156	1.15
668.188	-11.85
668.22	3.15
668.251	4.15
668.283	18.15
668.314	11.15
668.346	0.15
668.377	8.15
668.409	4.15
668.441	16.15
668.472	9.15
668.504	3.15
668.535	3.15
668.567	0.15
668.599	-4.85
668.63	-12.85
668.662	-2.85
668.693	11.15
668.725	4.15
668.756	1.15
668.788	1.15
668.819	2.15
668.851	-6.85
668.882	2.15
668.914	-0.85
668.946	10.15
668.977	0.15
669.009	3.15
669.04	-14.85
669.072	-1.85
669.103	-13.85
669.135	-24.85
669.166	-16.85
669.198	-3.85
669.229	5.15
669.261	1.15
669.292	-2.85
669.324	-0.85
669.355	2.15
669.387	-28.85
669.418	4.15
669.45	-18.85
669.481	4.15
669.513	-11.85
669.544	0.15
669.576	-9.85
669.607	6.15
669.639	4.15
669.67	-16.85
669.701	3.15
669.733	-8.85
669.764	-2.85
669.796	-24.85
669.827	-13.85
669.859	-4.85
669.89	2.15
669.922	11.15
669.953	-0.85
669.985	15.15
670.016	21.15
670.047	0.15
670.079	0.15
670.11	7.15
670.142	-16.85
670.173	3.15
670.204	-2.85
670.236	-5.85
670.267	-16.85
670.299	-13.85
670.33	-2.85
670.362	11.15
670.393	-7.85
670.424	-1.85
670.456	-15.85
670.487	-12.85
670.518	-0.85
670.55	-8.85
670.581	-1.85
670.613	-14.85
670.644	-6.85
670.675	-3.85
670.707	5.15
670.738	1.15
670.769	-4.85
670.801	-12.85
670.832	-5.85
670.864	2.15
670.895	-13.85
670.926	-6.85
670.958	4.15
670.989	-11.85
671.02	3.15
671.052	-5.85
671.083	-13.85
671.114	-10.85
671.146	1.15
671.177	4.15
671.208	-20.85
671.24	-6.85
671.271	-5.85
671.302	-7.85
671.333	-7.85
671.365	-12.85
671.396	-0.85
671.427	4.15
671.459	-10.85
671.49	8.15
671.521	11.15
671.553	6.15
671.584	22.15
671.615	-5.85
671.646	-2.85
671.678	3.15
671.709	-11.85
671.74	-17.85
671.771	1.15
671.803	-5.85
671.834	-4.85
671.865	-17.85
671.896	-2.85
671.928	-16.85
671.959	-14.85
671.99	-8.85
672.021	-8.85
672.053	-11.85
672.084	0.15
672.115	5.15
672.146	-1.85
672.178	-2.85
672.209	-4.85
672.24	12.15
672.271	16.15
672.303	1.15
672.334	-11.85
672.365	2.15
672.396	0.15
672.427	-6.85
672.459	3.15
672.49	15.15
672.521	-0.85
672.552	7.15
672.583	1.15
672.615	2.15
672.646	5.15
672.677	-7.85
672.708	-15.85
672.739	-3.85
672.77	12.15
672.802	7.15
672.833	3.15
672.864	-2.85
672.895	-1.85
672.926	-16.85
672.957	-23.85
672.989	2.15
673.02	17.15
673.051	10.15
673.082	6.15
673.113	-3.85
673.144	9.15
673.175	1.15
673.206	-6.85
673.238	-5.85
673.269	-2.85
673.3	0.15
673.331	10.15
673.362	7.15
673.393	9.15
673.424	-0.85
673.455	23.15
673.487	13.15
673.518	20.15
673.549	15.15
673.58	-9.85
673.611	-4.85
673.642	11.15
673.673	-9.85
673.704	5.15
673.735	23.15
673.766	-9.85
673.797	-16.85
673.828	-3.85
673.86	-13.85
673.891	-13.85
673.922	-0.85
673.953	6.15
673.984	14.15
674.015	-2.85
674.046	-3.85
674.077	5.15
674.108	-5.85
674.139	2.15
674.17	-0.85
674.201	-12.85
674.232	-4.85
674.263	-14.85
674.294	-9.85
674.325	-16.85
674.356	0.15
674.387	27.15
674.418	10.15
674.449	-0.85
674.48	-17.85
674.511	-7.85
674.542	13.15
674.573	-6.85
674.604	10.15
674.635	-6.85
674.666	2.15
674.697	-1.85
674.728	-5.85
674.759	-4.85
674.79	-5.85
674.821	-11.85
674.852	-12.85
674.883	-11.85
674.914	1.15
674.945	-3.85
674.976	5.15
675.007	-7.85
675.038	-2.85
675.069	-17.85
675.1	-5.85
675.131	3.15
675.162	-12.85
675.193	-12.85
675.224	1.15
675.254	1.15
675.285	-4.85
675.316	17.15
675.347	3.15
675.378	-8.85
675.409	-0.85
675.44	2.15
675.471	-3.85
675.502	2.15
675.533	-9.85
675.564	-3.85
675.595	-0.85
675.625	29.15
675.656	8.15
675.687	-5.85
675.718	-11.85
675.749	12.15
675.78	-7.85
675.811	-12.85
675.842	-0.85
675.873	-4.85
675.903	-19.85
675.934	-11.85
675.965	-11.85
675.996	-3.85
676.027	-19.85
676.058	0.15
676.089	-1.85
676.119	-1.85
676.15	-7.85
676.181	-4.85
676.212	-8.85
676.243	26.15
676.274	-10.85
676.304	15.15
676.335	-2.85
676.366	-13.85
676.397	-1.85
676.428	1.15
676.459	4.15
676.489	16.15
676.52	17.15
676.551	6.15
676.582	-4.85
676.613	3.15
676.643	-11.85
676.674	-0.85
676.705	-12.85
676.736	6.15
676.767	13.15
676.797	4.15
676.828	-2.85
676.859	-0.85
676.89	-2.85
676.92	-14.85
676.951	-3.85
676.982	0.15
677.013	2.15
677.044	3.15
677.074	10.15
677.105	-8.85
677.136	7.15
677.167	5.15
677.197	13.15
677.228	19.15
677.259	3.15
677.289	-7.85
677.32	-0.85
677.351	-1.85
677.382	-11.85
677.412	-1.85
677.443	30.15
677.474	6.15
677.505	-15.85
677.535	-5.85
677.566	-11.85
677.597	-0.85
677.627	-9.85
677.658	-5.85
677.689	-14.85
677.72	11.15
677.75	-4.85
677.781	5.15
677.812	-12.85
677.842	-2.85
677.873	-1.85
677.904	-4.85
677.934	13.15
677.965	-0.85
677.996	-11.85
678.026	-26.85
678.057	0.15
678.088	4.15
678.118	-6.85
678.149	-0.85
678.18	-5.85
678.21	14.15
678.241	2.15
678.272	12.15
678.302	3.15
678.333	12.15
678.363	7.15
678.394	-4.85
678.425	11.15
678.455	-1.85
678.486	2.15
678.517	7.15
678.547	-9.85
678.578	-0.85
678.608	-18.85
678.639	-3.85
678.67	-8.85
678.7	-9.85
678.731	-12.85
678.761	-5.85
678.792	7.15
678.823	17.15
678.853	-3.85
678.884	-23.85
678.914	-10.85
678.945	3.15
678.975	-6.85
679.006	12.15
679.037	-7.85
679.067	14.15
679.098	-12.85
679.128	-5.85
679.159	9.15
679.189	4.15
679.22	6.15
679.25	13.15
679.281	-13.85
679.312	-7.85
679.342	10.15
679.373	28.15
679.403	14.15
679.434	2.15
679.464	-12.85
679.495	-1.85
679.525	2.15
679.556	9.15
679.586	1.15
679.617	-1.85
679.647	4.15
679.678	-0.85
679.708	2.15
679.739	-8.85
679.769	-1.85
679.8	-13.85
679.83	-0.85
679.861	9.15
679.891	-0.85
679.922	-18.85
679.952	-9.85
679.983	16.15
680.013	-3.85
680.044	-2.85
680.074	0.15
680.105	8.15
680.135	5.15
680.165	11.15
680.196	-7.85
680.226	2.15
680.257	5.15
680.287	21.15
680.318	1.15
680.348	7.15
680.379	17.15
680.409	5.15
680.439	-14.85
680.47	-18.85
680.5	-7.85
680.531	-4.85
680.561	7.15
680.592	14.15
680.622	11.15
680.652	-7.85
680.683	-6.85
680.713	-7.85
680.744	-19.85
680.774	-0.85
680.804	11.15
680.835	-5.85
680.865	-14.85
680.896	8.15
680.926	11.15
680.956	-1.85
680.987	12.15
681.017	0.15
681.047	-5.85
681.078	-20.85
681.108	0.15
681.139	2.15
681.169	-1.85
681.199	0.15
681.23	1.15
681.26	-11.85
681.29	-18.85
681.321	-11.85
681.351	-6.85
681.381	-10.85
681.412	3.15
681.442	-8.85
681.472	6.15
681.503	0.15
681.533	8.15
681.563	-2.85
681.594	-10.85
681.624	3.15
681.654	-0.85
681.685	3.15
681.715	2.15
681.745	-0.85
681.775	-4.85
681.806	-2.85
681.836	7.15
681.866	-3.85
681.897	6.15
681.927	-2.85
681.957	-31.85
681.987	-9.85
682.018	-5.85
682.048	5.15
682.078	-5.85
682.109	8.15
682.139	0.15
682.169	-3.85
682.199	-7.85
682.23	-8.85
682.26	11.15
682.29	-4.85
