Data from HighRes_mercury_15_13_11_07_2024_HR4C61891__18__15-14-24-986.txt Node

Date: Thu Nov 07 15:14:24 EST 2024
User: crc00042
Spectrometer: HR4C6189
Trigger mode: 4
Integration Time (sec): 1.000000E-1
Scans to average: 1
Electric dark correction enabled: true
Nonlinearity correction enabled: false
Boxcar width: 0
XAxis mode: Wavelengths
Number of Pixels in Spectrum: 3648
>>>>>Begin Spectral Data<<<<<
639.567	-28.23
639.602	-28.23
639.636	-28.23
639.67	-49.23
639.704	-7.23
639.738	-3.23
639.773	4.77
639.807	-29.23
639.841	11.77
639.875	14.77
639.909	10.77
639.943	-11.23
639.978	-14.23
640.012	-3.23
640.046	13.77
640.08	7.77
640.114	8.77
640.148	-11.23
640.182	-3.23
640.217	-7.23
640.251	20.77
640.285	12.77
640.319	-20.23
640.353	-2.23
640.387	5.77
640.421	-1.23
640.455	2.77
640.49	-2.23
640.524	-9.23
640.558	12.77
640.592	-7.23
640.626	-3.23
640.66	2.77
640.694	4.77
640.728	-3.23
640.762	8.77
640.796	21.77
640.83	1.77
640.865	-7.23
640.899	-2.23
640.933	4.77
640.967	1.77
641.001	3.77
641.035	1.77
641.069	-5.23
641.103	-15.23
641.137	-14.23
641.171	-11.23
641.205	3.77
641.239	-3.23
641.273	25.77
641.307	0.77
641.341	-12.23
641.375	13.77
641.409	-9.23
641.443	-35.23
641.477	5.77
641.511	7.77
641.545	7.77
641.579	-11.23
641.614	-1.23
641.648	1.77
641.682	-31.23
641.716	-4.23
641.75	-0.23
641.784	-28.23
641.818	0.77
641.852	2.77
641.886	-13.23
641.919	15.77
641.953	-1.23
641.987	-2.23
642.021	-7.23
642.055	-3.23
642.089	-1.23
642.123	-23.23
642.157	-13.23
642.191	-0.23
642.225	15.77
642.259	-17.23
642.293	6.77
642.327	5.77
642.361	-28.23
642.395	3.77
642.429	11.77
642.463	5.77
642.497	1.77
642.531	-11.23
642.565	0.77
642.599	8.77
642.633	-16.23
642.666	4.77
642.7	4.77
642.734	5.77
642.768	-19.23
642.802	10.77
642.836	-19.23
642.87	-8.23
642.904	-0.23
642.938	-4.23
642.972	-7.23
643.005	-1.23
643.039	6.77
643.073	-4.23
643.107	22.77
643.141	-11.23
643.175	3.77
643.209	3.77
643.243	-1.23
643.276	3.77
643.31	-14.23
643.344	7.77
643.378	-2.23
643.412	1.77
643.446	14.77
643.48	-0.23
643.513	7.77
643.547	-3.23
643.581	-2.23
643.615	9.77
643.649	-6.23
643.683	3.77
643.716	-3.23
643.75	-1.23
643.784	-27.23
643.818	1.77
643.852	-19.23
643.886	5.77
643.919	14.77
643.953	4.77
643.987	-4.23
644.021	3.77
644.055	3.77
644.088	-0.23
644.122	-4.23
644.156	10.77
644.19	-0.23
644.224	-7.23
644.257	4.77
644.291	6.77
644.325	-10.23
644.359	-1.23
644.392	20.77
644.426	18.77
644.46	6.77
644.494	-0.23
644.527	-14.23
644.561	10.77
644.595	-7.23
644.629	-13.23
644.662	0.77
644.696	19.77
644.73	-8.23
644.764	-10.23
644.797	-4.23
644.831	-0.23
644.865	11.77
644.899	5.77
644.932	5.77
644.966	-0.23
645	15.77
645.033	27.77
645.067	1.77
645.101	9.77
645.135	-8.23
645.168	-13.23
645.202	-1.23
645.236	-12.23
645.269	0.77
645.303	-7.23
645.337	-0.23
645.37	-12.23
645.404	26.77
645.438	13.77
645.471	-3.23
645.505	3.77
645.539	-8.23
645.572	-14.23
645.606	-17.23
645.64	-1.23
645.673	-3.23
645.707	7.77
645.741	-1.23
645.774	-13.23
645.808	-4.23
645.842	-1.23
645.875	6.77
645.909	-15.23
645.943	-2.23
645.976	15.77
646.01	-9.23
646.043	11.77
646.077	-5.23
646.111	2.77
646.144	4.77
646.178	18.77
646.212	-20.23
646.245	-9.23
646.279	-10.23
646.312	2.77
646.346	12.77
646.38	-4.23
646.413	9.77
646.447	-6.23
646.48	-7.23
646.514	9.77
646.547	-5.23
646.581	6.77
646.615	-10.23
646.648	-18.23
646.682	-8.23
646.715	-12.23
646.749	3.77
646.782	3.77
646.816	-8.23
646.85	-7.23
646.883	0.77
646.917	-0.23
646.95	-0.23
646.984	6.77
647.017	4.77
647.051	13.77
647.084	12.77
647.118	10.77
647.151	1.77
647.185	3.77
647.218	-27.23
647.252	-0.23
647.285	-15.23
647.319	-7.23
647.353	-1.23
647.386	6.77
647.42	2.77
647.453	-5.23
647.487	-3.23
647.52	-4.23
647.553	-3.23
647.587	1.77
647.62	-7.23
647.654	1.77
647.687	1.77
647.721	21.77
647.754	20.77
647.788	-0.23
647.821	-3.23
647.855	2.77
647.888	9.77
647.922	1.77
647.955	-3.23
647.989	-0.23
648.022	0.77
648.055	13.77
648.089	3.77
648.122	31.77
648.156	-9.23
648.189	25.77
648.223	12.77
648.256	10.77
648.29	5.77
648.323	-3.23
648.356	7.77
648.39	19.77
648.423	4.77
648.457	1.77
648.49	13.77
648.523	10.77
648.557	6.77
648.59	1.77
648.624	6.77
648.657	-0.23
648.69	10.77
648.724	13.77
648.757	3.77
648.791	-5.23
648.824	0.77
648.857	8.77
648.891	11.77
648.924	13.77
648.957	11.77
648.991	-3.23
649.024	11.77
649.057	3.77
649.091	9.77
649.124	9.77
649.158	-10.23
649.191	20.77
649.224	-3.23
649.258	-1.23
649.291	-6.23
649.324	-4.23
649.358	-0.23
649.391	9.77
649.424	-1.23
649.458	2.77
649.491	-8.23
649.524	-7.23
649.557	-7.23
649.591	-21.23
649.624	8.77
649.657	-3.23
649.691	-19.23
649.724	1.77
649.757	12.77
649.791	-8.23
649.824	20.77
649.857	-2.23
649.89	5.77
649.924	-13.23
649.957	-1.23
649.99	-14.23
650.023	-1.23
650.057	8.77
650.09	-1.23
650.123	11.77
650.157	14.77
650.19	15.77
650.223	2.77
650.256	-7.23
650.29	-4.23
650.323	-0.23
650.356	7.77
650.389	-0.23
650.423	-9.23
650.456	-8.23
650.489	21.77
650.522	4.77
650.555	3.77
650.589	4.77
650.622	-1.23
650.655	5.77
650.688	7.77
650.721	-0.23
650.755	1.77
650.788	6.77
650.821	-11.23
650.854	5.77
650.887	2.77
650.921	-8.23
650.954	1.77
650.987	0.77
651.02	-7.23
651.053	-4.23
651.087	4.77
651.12	16.77
651.153	16.77
651.186	3.77
651.219	-16.23
651.252	-7.23
651.286	-0.23
651.319	-0.23
651.352	2.77
651.385	5.77
651.418	10.77
651.451	20.77
651.484	13.77
651.518	12.77
651.551	27.77
651.584	-3.23
651.617	12.77
651.65	-3.23
651.683	12.77
651.716	1.77
651.749	0.77
651.783	-0.23
651.816	29.77
651.849	-0.23
651.882	1.77
651.915	-0.23
651.948	13.77
651.981	-6.23
652.014	-16.23
652.047	-6.23
652.08	3.77
652.114	-1.23
652.147	-13.23
652.18	2.77
652.213	16.77
652.246	-16.23
652.279	-4.23
652.312	-4.23
652.345	1.77
652.378	-2.23
652.411	28.77
652.444	10.77
652.477	-0.23
652.51	-1.23
652.543	-11.23
652.576	5.77
652.609	-5.23
652.642	-8.23
652.675	2.77
652.709	5.77
652.742	-3.23
652.775	4.77
652.808	6.77
652.841	8.77
652.874	5.77
652.907	0.77
652.94	-7.23
652.973	-4.23
653.006	-2.23
653.039	3.77
653.072	-7.23
653.105	-7.23
653.138	-13.23
653.171	-1.23
653.204	7.77
653.237	14.77
653.27	0.77
653.303	-2.23
653.336	15.77
653.368	-2.23
653.401	14.77
653.434	-4.23
653.467	9.77
653.5	-8.23
653.533	-10.23
653.566	-0.23
653.599	6.77
653.632	6.77
653.665	-12.23
653.698	-16.23
653.731	-6.23
653.764	14.77
653.797	-1.23
653.83	-6.23
653.863	-4.23
653.896	-14.23
653.929	-10.23
653.961	-6.23
653.994	5.77
654.027	-20.23
654.06	6.77
654.093	5.77
654.126	2.77
654.159	-10.23
654.192	5.77
654.225	-10.23
654.258	-8.23
654.29	-7.23
654.323	4.77
654.356	-3.23
654.389	9.77
654.422	-2.23
654.455	-4.23
654.488	3.77
654.521	-2.23
654.553	-3.23
654.586	12.77
654.619	3.77
654.652	-5.23
654.685	-1.23
654.718	8.77
654.751	8.77
654.783	-10.23
654.816	-4.23
654.849	-9.23
654.882	-8.23
654.915	-11.23
654.948	-3.23
654.98	-17.23
655.013	-3.23
655.046	-5.23
655.079	-2.23
655.112	4.77
655.144	-20.23
655.177	-3.23
655.21	-0.23
655.243	14.77
655.276	7.77
655.308	-11.23
655.341	-10.23
655.374	-2.23
655.407	1.77
655.44	-5.23
655.472	-6.23
655.505	-4.23
655.538	-7.23
655.571	10.77
655.603	-2.23
655.636	-1.23
655.669	6.77
655.702	-2.23
655.734	-7.23
655.767	3.77
655.8	-12.23
655.833	1.77
655.865	20.77
655.898	-1.23
655.931	-3.23
655.964	-2.23
655.996	-0.23
656.029	14.77
656.062	-4.23
656.095	17.77
656.127	-13.23
656.16	-2.23
656.193	-11.23
656.225	14.77
656.258	-9.23
656.291	-8.23
656.324	8.77
656.356	10.77
656.389	-2.23
656.422	8.77
656.454	-0.23
656.487	-11.23
656.52	8.77
656.552	-12.23
656.585	-8.23
656.618	1.77
656.65	18.77
656.683	-4.23
656.716	6.77
656.748	-9.23
656.781	1.77
656.814	-12.23
656.846	4.77
656.879	-4.23
656.912	-9.23
656.944	-20.23
656.977	-26.23
657.01	-13.23
657.042	13.77
657.075	6.77
657.108	-11.23
657.14	6.77
657.173	5.77
657.205	17.77
657.238	14.77
657.271	0.77
657.303	-23.23
657.336	7.77
657.369	-3.23
657.401	-3.23
657.434	-2.23
657.466	9.77
657.499	0.77
657.532	2.77
657.564	5.77
657.597	-15.23
657.629	-5.23
657.662	1.77
657.694	-1.23
657.727	-23.23
657.76	3.77
657.792	0.77
657.825	-14.23
657.857	-4.23
657.89	-3.23
657.922	14.77
657.955	-17.23
657.987	9.77
658.02	3.77
658.053	6.77
658.085	-2.23
658.118	7.77
658.15	8.77
658.183	18.77
658.215	5.77
658.248	-4.23
658.28	-3.23
658.313	21.77
658.345	-0.23
658.378	-8.23
658.41	-2.23
658.443	4.77
658.475	-0.23
658.508	-4.23
658.54	-1.23
658.573	1.77
658.605	12.77
658.638	2.77
658.67	-20.23
658.703	3.77
658.735	1.77
658.768	16.77
658.8	1.77
658.833	35.77
658.865	6.77
658.898	-2.23
658.93	-5.23
658.963	-8.23
658.995	-19.23
659.028	3.77
659.06	-7.23
659.092	-24.23
659.125	-2.23
659.157	-5.23
659.19	-6.23
659.222	-12.23
659.255	3.77
659.287	-0.23
659.32	-4.23
659.352	-0.23
659.384	7.77
659.417	-24.23
659.449	21.77
659.482	0.77
659.514	-29.23
659.546	-12.23
659.579	-18.23
659.611	5.77
659.644	-2.23
659.676	-22.23
659.708	-8.23
659.741	-18.23
659.773	7.77
659.806	-11.23
659.838	-3.23
659.87	3.77
659.903	-12.23
659.935	-7.23
659.967	-0.23
660	5.77
660.032	-7.23
660.065	21.77
660.097	-0.23
660.129	-0.23
660.162	-19.23
660.194	0.77
660.226	6.77
660.259	-2.23
660.291	-16.23
660.323	-11.23
660.356	1.77
660.388	-16.23
660.42	-20.23
660.453	3.77
660.485	-5.23
660.517	14.77
660.55	9.77
660.582	-10.23
660.614	14.77
660.647	-7.23
660.679	-21.23
660.711	-8.23
660.743	-9.23
660.776	-23.23
660.808	2.77
660.84	-13.23
660.873	-1.23
660.905	0.77
660.937	-10.23
660.969	-23.23
661.002	-0.23
661.034	8.77
661.066	7.77
661.099	9.77
661.131	18.77
661.163	-13.23
661.195	3.77
661.228	-7.23
661.26	0.77
661.292	-0.23
661.324	-4.23
661.357	2.77
661.389	4.77
661.421	-7.23
661.453	-0.23
661.485	4.77
661.518	13.77
661.55	-13.23
661.582	-6.23
661.614	7.77
661.647	26.77
661.679	9.77
661.711	-7.23
661.743	3.77
661.775	3.77
661.808	15.77
661.84	-7.23
661.872	-5.23
661.904	-11.23
661.936	-3.23
661.969	-11.23
662.001	-16.23
662.033	-0.23
662.065	-9.23
662.097	2.77
662.129	5.77
662.162	-8.23
662.194	-12.23
662.226	8.77
662.258	8.77
662.29	-11.23
662.322	-12.23
662.355	-13.23
662.387	12.77
662.419	1.77
662.451	2.77
662.483	9.77
662.515	6.77
662.547	-0.23
662.58	0.77
662.612	-3.23
662.644	-9.23
662.676	-16.23
662.708	11.77
662.74	-3.23
662.772	-6.23
662.804	5.77
662.836	-1.23
662.869	-10.23
662.901	-4.23
662.933	-15.23
662.965	13.77
662.997	5.77
663.029	-23.23
663.061	-3.23
663.093	-3.23
663.125	-4.23
663.157	7.77
663.189	-9.23
663.221	-3.23
663.254	-10.23
663.286	6.77
663.318	-11.23
663.35	-26.23
663.382	5.77
663.414	5.77
663.446	-3.23
663.478	-17.23
663.51	35.77
663.542	-3.23
663.574	-0.23
663.606	8.77
663.638	-1.23
663.67	-6.23
663.702	-17.23
663.734	-15.23
663.766	11.77
663.798	3.77
663.83	4.77
663.862	3.77
663.894	1.77
663.926	-9.23
663.958	4.77
663.99	12.77
664.022	1.77
664.054	-0.23
664.086	-11.23
664.118	-19.23
664.15	-10.23
664.182	0.77
664.214	-11.23
664.246	-7.23
664.278	7.77
664.31	23.77
664.342	8.77
664.374	-7.23
664.406	-0.23
664.438	-8.23
664.47	-1.23
664.502	-0.23
664.534	1.77
664.566	-6.23
664.598	7.77
664.63	-17.23
664.662	1.77
664.693	-5.23
664.725	-0.23
664.757	-3.23
664.789	-12.23
664.821	-1.23
664.853	1.77
664.885	-0.23
664.917	-13.23
664.949	11.77
664.981	21.77
665.013	2.77
665.045	-4.23
665.076	0.77
665.108	-11.23
665.14	-9.23
665.172	4.77
665.204	-13.23
665.236	-10.23
665.268	5.77
665.3	-5.23
665.331	-16.23
665.363	-4.23
665.395	-2.23
665.427	-6.23
665.459	-4.23
665.491	-23.23
665.523	-17.23
665.555	-9.23
665.586	-11.23
665.618	-10.23
665.65	-8.23
665.682	6.77
665.714	5.77
665.746	-20.23
665.777	8.77
665.809	-4.23
665.841	-2.23
665.873	1.77
665.905	9.77
665.937	10.77
665.968	5.77
666	6.77
666.032	-0.23
666.064	0.77
666.096	-7.23
666.127	-1.23
666.159	10.77
666.191	2.77
666.223	3.77
666.255	2.77
666.286	2.77
666.318	0.77
666.35	5.77
666.382	5.77
666.413	2.77
666.445	-7.23
666.477	-19.23
666.509	-20.23
666.54	-3.23
666.572	-10.23
666.604	-16.23
666.636	-7.23
666.667	9.77
666.699	7.77
666.731	-2.23
666.763	-1.23
666.794	-0.23
666.826	0.77
666.858	-9.23
666.89	-2.23
666.921	5.77
666.953	-8.23
666.985	2.77
667.017	2.77
667.048	2.77
667.08	13.77
667.112	4.77
667.143	-2.23
667.175	3.77
667.207	-2.23
667.238	1.77
667.27	-13.23
667.302	-16.23
667.334	-9.23
667.365	11.77
667.397	-4.23
667.429	-3.23
667.46	7.77
667.492	0.77
667.524	-9.23
667.555	-16.23
667.587	-3.23
667.619	-1.23
667.65	-5.23
667.682	-9.23
667.714	-11.23
667.745	-6.23
667.777	-16.23
667.808	-4.23
667.84	-10.23
667.872	4.77
667.903	11.77
667.935	-9.23
667.967	-3.23
667.998	-10.23
668.03	-2.23
668.061	8.77
668.093	-1.23
668.125	-0.23
668.156	4.77
668.188	6.77
668.22	-17.23
668.251	-1.23
668.283	-5.23
668.314	19.77
668.346	8.77
668.377	9.77
668.409	13.77
668.441	20.77
668.472	4.77
668.504	9.77
668.535	-2.23
668.567	0.77
668.599	-1.23
668.63	-11.23
668.662	-9.23
668.693	-0.23
668.725	-0.23
668.756	-0.23
668.788	-6.23
668.819	-9.23
668.851	7.77
668.882	7.77
668.914	2.77
668.946	-8.23
668.977	-1.23
669.009	6.77
669.04	-12.23
669.072	16.77
669.103	7.77
669.135	2.77
669.166	5.77
669.198	14.77
669.229	-0.23
669.261	-7.23
669.292	-13.23
669.324	0.77
669.355	12.77
669.387	-0.23
669.418	4.77
669.45	-16.23
669.481	-0.23
669.513	9.77
669.544	0.77
669.576	0.77
669.607	4.77
669.639	20.77
669.67	8.77
669.701	7.77
669.733	-5.23
669.764	-15.23
669.796	-7.23
669.827	-16.23
669.859	2.77
669.89	8.77
669.922	8.77
669.953	1.77
669.985	-2.23
670.016	0.77
670.047	4.77
670.079	-10.23
670.11	2.77
670.142	1.77
670.173	4.77
670.204	-13.23
670.236	3.77
670.267	-14.23
670.299	-0.23
670.33	-6.23
670.362	7.77
670.393	-24.23
670.424	9.77
670.456	-9.23
670.487	-1.23
670.518	-3.23
670.55	3.77
670.581	-2.23
670.613	-8.23
670.644	-16.23
670.675	-8.23
670.707	-15.23
670.738	-6.23
670.769	-10.23
670.801	-16.23
670.832	8.77
670.864	-5.23
670.895	-12.23
670.926	-1.23
670.958	-13.23
670.989	2.77
671.02	-5.23
671.052	4.77
671.083	8.77
671.114	0.77
671.146	27.77
671.177	6.77
671.208	-8.23
671.24	-9.23
671.271	-9.23
671.302	9.77
671.333	-3.23
671.365	-7.23
671.396	-6.23
671.427	-1.23
671.459	-0.23
671.49	4.77
671.521	0.77
671.553	2.77
671.584	11.77
671.615	-4.23
671.646	-0.23
671.678	6.77
671.709	-13.23
671.74	-20.23
671.771	-10.23
671.803	-20.23
671.834	10.77
671.865	6.77
671.896	-6.23
671.928	-0.23
671.959	1.77
671.99	2.77
672.021	-6.23
672.053	-15.23
672.084	21.77
672.115	-6.23
672.146	-9.23
672.178	-27.23
672.209	-3.23
672.24	-10.23
672.271	35.77
672.303	3.77
672.334	-4.23
672.365	-4.23
672.396	2.77
672.427	-0.23
672.459	9.77
672.49	14.77
672.521	2.77
672.552	-1.23
672.583	-17.23
672.615	11.77
672.646	12.77
672.677	-4.23
672.708	-16.23
672.739	0.77
672.77	3.77
672.802	-5.23
672.833	-9.23
672.864	15.77
672.895	0.77
672.926	-15.23
672.957	-6.23
672.989	-6.23
673.02	-5.23
673.051	-11.23
673.082	3.77
673.113	1.77
673.144	13.77
673.175	-3.23
673.206	-11.23
673.238	-8.23
673.269	6.77
673.3	-10.23
673.331	-0.23
673.362	4.77
673.393	-0.23
673.424	6.77
673.455	16.77
673.487	1.77
673.518	18.77
673.549	-3.23
673.58	-16.23
673.611	6.77
673.642	9.77
673.673	-22.23
673.704	2.77
673.735	-1.23
673.766	-10.23
673.797	-25.23
673.828	9.77
673.86	-12.23
673.891	-13.23
673.922	-10.23
673.953	-8.23
673.984	6.77
674.015	10.77
674.046	3.77
674.077	1.77
674.108	-7.23
674.139	0.77
674.17	-8.23
674.201	-1.23
674.232	-12.23
674.263	-4.23
674.294	-10.23
674.325	-14.23
674.356	-6.23
674.387	7.77
674.418	-5.23
674.449	-10.23
674.48	-24.23
674.511	2.77
674.542	9.77
674.573	-10.23
674.604	3.77
674.635	-6.23
674.666	-0.23
674.697	-1.23
674.728	12.77
674.759	-1.23
674.79	-12.23
674.821	-14.23
674.852	-2.23
674.883	-8.23
674.914	-18.23
674.945	-9.23
674.976	2.77
675.007	-15.23
675.038	-4.23
675.069	-23.23
675.1	-4.23
675.131	-1.23
675.162	-16.23
675.193	-16.23
675.224	-12.23
675.254	4.77
675.285	-6.23
675.316	20.77
675.347	5.77
675.378	0.77
675.409	-3.23
675.44	-6.23
675.471	-12.23
675.502	5.77
675.533	-2.23
675.564	-3.23
675.595	3.77
675.625	12.77
675.656	6.77
675.687	7.77
675.718	-19.23
675.749	-1.23
675.78	-1.23
675.811	-0.23
675.842	-8.23
675.873	-6.23
675.903	1.77
675.934	-3.23
675.965	4.77
675.996	-14.23
676.027	8.77
676.058	-4.23
676.089	-9.23
676.119	-11.23
676.15	-12.23
676.181	-10.23
676.212	-8.23
676.243	-8.23
676.274	-1.23
676.304	14.77
676.335	-12.23
676.366	0.77
676.397	-18.23
676.428	5.77
676.459	-9.23
676.489	-4.23
676.52	-5.23
676.551	-9.23
676.582	-20.23
676.613	-12.23
676.643	-14.23
676.674	16.77
676.705	-9.23
676.736	-4.23
676.767	12.77
676.797	-1.23
676.828	9.77
676.859	-10.23
676.89	11.77
676.92	-3.23
676.951	21.77
676.982	0.77
677.013	-2.23
677.044	7.77
677.074	13.77
677.105	-7.23
677.136	19.77
677.167	9.77
677.197	1.77
677.228	-9.23
677.259	0.77
677.289	2.77
677.32	-21.23
677.351	-14.23
677.382	-1.23
677.412	-23.23
677.443	4.77
677.474	6.77
677.505	-10.23
677.535	12.77
677.566	-7.23
677.597	-12.23
677.627	-8.23
677.658	-3.23
677.689	3.77
677.72	-2.23
677.75	-16.23
677.781	1.77
677.812	0.77
677.842	17.77
677.873	-3.23
677.904	1.77
677.934	-4.23
677.965	2.77
677.996	-1.23
678.026	-7.23
678.057	4.77
678.088	-15.23
678.118	-4.23
678.149	7.77
678.18	5.77
678.21	8.77
678.241	9.77
678.272	-1.23
678.302	-0.23
678.333	7.77
678.363	0.77
678.394	16.77
678.425	-20.23
678.455	-5.23
678.486	-2.23
678.517	1.77
678.547	-1.23
678.578	-7.23
678.608	-20.23
678.639	9.77
678.67	-1.23
678.7	-18.23
678.731	2.77
678.761	15.77
678.792	8.77
678.823	6.77
678.853	-12.23
678.884	-17.23
678.914	1.77
678.945	-6.23
678.975	-1.23
679.006	-0.23
679.037	0.77
679.067	17.77
679.098	-13.23
679.128	2.77
679.159	0.77
679.189	9.77
679.22	-2.23
679.25	-10.23
679.281	-0.23
679.312	0.77
679.342	-14.23
679.373	16.77
679.403	-3.23
679.434	-16.23
679.464	-7.23
679.495	1.77
679.525	2.77
679.556	0.77
679.586	6.77
679.617	8.77
679.647	8.77
679.678	0.77
679.708	-4.23
679.739	-7.23
679.769	-9.23
679.8	-8.23
679.83	-6.23
679.861	8.77
679.891	-14.23
679.922	-8.23
679.952	4.77
679.983	13.77
680.013	-7.23
680.044	8.77
680.074	7.77
680.105	9.77
680.135	4.77
680.165	-3.23
680.196	13.77
680.226	16.77
680.257	7.77
680.287	11.77
680.318	2.77
680.348	-12.23
680.379	1.77
680.409	3.77
680.439	-5.23
680.47	-3.23
680.5	5.77
680.531	6.77
680.561	0.77
680.592	-1.23
680.622	9.77
680.652	3.77
680.683	16.77
680.713	3.77
680.744	-0.23
680.774	-13.23
680.804	0.77
680.835	-3.23
680.865	-5.23
680.896	19.77
680.926	1.77
680.956	-0.23
680.987	-11.23
681.017	-9.23
681.047	19.77
681.078	-14.23
681.108	6.77
681.139	9.77
681.169	1.77
681.199	2.77
681.23	2.77
681.26	-3.23
681.29	6.77
681.321	-9.23
681.351	2.77
681.381	-8.23
681.412	8.77
681.442	0.77
681.472	3.77
681.503	-4.23
681.533	8.77
681.563	2.77
681.594	-6.23
681.624	-1.23
681.654	-22.23
681.685	-20.23
681.715	-3.23
681.745	-5.23
681.775	2.77
681.806	17.77
681.836	5.77
681.866	0.77
681.897	-2.23
681.927	-7.23
681.957	-14.23
681.987	14.77
682.018	-8.23
682.048	1.77
682.078	6.77
682.109	18.77
682.139	12.77
682.169	-3.23
682.199	-4.23
682.23	-9.23
682.26	-0.23
682.29	-13.23
682.32	14.77
682.351	-20.23
