Data from HighRes_H2D2_15_04_11_07_2024_HR4C61891__53__15-05-39-743.txt Node

Date: Thu Nov 07 15:05:39 EST 2024
User: crc00042
Spectrometer: HR4C6189
Trigger mode: 4
Integration Time (sec): 1.000000E-1
Scans to average: 1
Electric dark correction enabled: true
Nonlinearity correction enabled: false
Boxcar width: 0
XAxis mode: Wavelengths
Number of Pixels in Spectrum: 3648
>>>>>Begin Spectral Data<<<<<
639.567	-53.38
639.602	-53.38
639.636	-53.38
639.67	-33.38
639.704	-10.38
639.738	2.62
639.773	-1.38
639.807	1.62
639.841	7.62
639.875	12.62
639.909	-12.38
639.943	-18.38
639.978	4.62
640.012	3.62
640.046	9.62
640.08	3.62
640.114	-1.38
640.148	-12.38
640.182	2.62
640.217	-6.38
640.251	2.62
640.285	3.62
640.319	-12.38
640.353	-16.38
640.387	-6.38
640.421	8.62
640.455	-9.38
640.49	-1.38
640.524	-5.38
640.558	5.62
640.592	-3.38
640.626	1.62
640.66	5.62
640.694	-9.38
640.728	4.62
640.762	5.62
640.796	15.62
640.83	4.62
640.865	2.62
640.899	-4.38
640.933	-5.38
640.967	3.62
641.001	6.62
641.035	9.62
641.069	-5.38
641.103	-18.38
641.137	-9.38
641.171	-13.38
641.205	-9.38
641.239	-3.38
641.273	18.62
641.307	0.62
641.341	12.62
641.375	-6.38
641.409	3.62
641.443	-5.38
641.477	11.62
641.511	13.62
641.545	-1.38
641.579	3.62
641.614	16.62
641.648	11.62
641.682	-4.38
641.716	6.62
641.75	14.62
641.784	-1.38
641.818	-5.38
641.852	-10.38
641.886	-35.38
641.919	10.62
641.953	-12.38
641.987	1.62
642.021	-17.38
642.055	-9.38
642.089	-0.38
642.123	-3.38
642.157	3.62
642.191	11.62
642.225	0.62
642.259	-7.38
642.293	11.62
642.327	-2.38
642.361	-10.38
642.395	-6.38
642.429	12.62
642.463	18.62
642.497	14.62
642.531	-2.38
642.565	-10.38
642.599	14.62
642.633	-13.38
642.666	4.62
642.7	1.62
642.734	-4.38
642.768	-5.38
642.802	-1.38
642.836	3.62
642.87	12.62
642.904	19.62
642.938	4.62
642.972	-8.38
643.005	-3.38
643.039	11.62
643.073	2.62
643.107	5.62
643.141	-1.38
643.175	-2.38
643.209	-15.38
643.243	3.62
643.276	5.62
643.31	-1.38
643.344	-14.38
643.378	-13.38
643.412	3.62
643.446	-4.38
643.48	-0.38
643.513	-2.38
643.547	-1.38
643.581	-1.38
643.615	2.62
643.649	-1.38
643.683	8.62
643.716	2.62
643.75	13.62
643.784	-10.38
643.818	-10.38
643.852	-1.38
643.886	16.62
643.919	5.62
643.953	-10.38
643.987	-7.38
644.021	-2.38
644.055	8.62
644.088	4.62
644.122	-1.38
644.156	-7.38
644.19	7.62
644.224	-29.38
644.257	-7.38
644.291	2.62
644.325	-1.38
644.359	-11.38
644.392	5.62
644.426	15.62
644.46	-1.38
644.494	4.62
644.527	-7.38
644.561	-0.38
644.595	-12.38
644.629	-10.38
644.662	-6.38
644.696	7.62
644.73	11.62
644.764	3.62
644.797	-12.38
644.831	7.62
644.865	4.62
644.899	-11.38
644.932	28.62
644.966	-6.38
645	6.62
645.033	7.62
645.067	-4.38
645.101	6.62
645.135	1.62
645.168	-4.38
645.202	-22.38
645.236	-16.38
645.269	6.62
645.303	-6.38
645.337	-16.38
645.37	-5.38
645.404	8.62
645.438	-1.38
645.471	-2.38
645.505	13.62
645.539	-12.38
645.572	-20.38
645.606	-0.38
645.64	-8.38
645.673	2.62
645.707	23.62
645.741	11.62
645.774	-21.38
645.808	3.62
645.842	-12.38
645.875	6.62
645.909	-6.38
645.943	-4.38
645.976	-6.38
646.01	1.62
646.043	15.62
646.077	5.62
646.111	-8.38
646.144	12.62
646.178	16.62
646.212	-12.38
646.245	-2.38
646.279	14.62
646.312	8.62
646.346	15.62
646.38	-7.38
646.413	-1.38
646.447	-20.38
646.48	-2.38
646.514	5.62
646.547	-3.38
646.581	-8.38
646.615	-1.38
646.648	-8.38
646.682	-4.38
646.715	12.62
646.749	18.62
646.782	-12.38
646.816	-10.38
646.85	-8.38
646.883	-12.38
646.917	7.62
646.95	-12.38
646.984	-6.38
647.017	-17.38
647.051	-5.38
647.084	-5.38
647.118	-2.38
647.151	-9.38
647.185	-10.38
647.218	-15.38
647.252	-3.38
647.285	-10.38
647.319	-8.38
647.353	2.62
647.386	12.62
647.42	-1.38
647.453	6.62
647.487	14.62
647.52	-0.38
647.553	0.62
647.587	-5.38
647.62	-0.38
647.654	-0.38
647.687	-1.38
647.721	5.62
647.754	14.62
647.788	7.62
647.821	-0.38
647.855	9.62
647.888	12.62
647.922	11.62
647.955	10.62
647.989	0.62
648.022	1.62
648.055	1.62
648.089	-0.38
648.122	20.62
648.156	6.62
648.189	-13.38
648.223	3.62
648.256	8.62
648.29	16.62
648.323	-4.38
648.356	16.62
648.39	9.62
648.423	12.62
648.457	4.62
648.49	18.62
648.523	18.62
648.557	1.62
648.59	-8.38
648.624	-9.38
648.657	-0.38
648.69	6.62
648.724	2.62
648.757	5.62
648.791	5.62
648.824	12.62
648.857	-8.38
648.891	-1.38
648.924	-4.38
648.957	29.62
648.991	6.62
649.024	28.62
649.057	4.62
649.091	-3.38
649.124	2.62
649.158	6.62
649.191	37.62
649.224	6.62
649.258	11.62
649.291	-6.38
649.324	-3.38
649.358	0.62
649.391	2.62
649.424	-6.38
649.458	-16.38
649.491	13.62
649.524	-10.38
649.557	-5.38
649.591	-24.38
649.624	8.62
649.657	7.62
649.691	11.62
649.724	-19.38
649.757	-11.38
649.791	7.62
649.824	14.62
649.857	10.62
649.89	9.62
649.924	-9.38
649.957	10.62
649.99	-20.38
650.023	18.62
650.057	0.62
650.09	4.62
650.123	-17.38
650.157	4.62
650.19	13.62
650.223	-17.38
650.256	-11.38
650.29	-5.38
650.323	-7.38
650.356	8.62
650.389	-20.38
650.423	-9.38
650.456	4.62
650.489	11.62
650.522	7.62
650.555	16.62
650.589	15.62
650.622	2.62
650.655	10.62
650.688	4.62
650.721	-11.38
650.755	2.62
650.788	16.62
650.821	-9.38
650.854	12.62
650.887	8.62
650.921	-4.38
650.954	-13.38
650.987	-27.38
651.02	-0.38
651.053	-5.38
651.087	-13.38
651.12	25.62
651.153	6.62
651.186	0.62
651.219	1.62
651.252	19.62
651.286	-2.38
651.319	-11.38
651.352	6.62
651.385	13.62
651.418	6.62
651.451	8.62
651.484	5.62
651.518	-17.38
651.551	18.62
651.584	-1.38
651.617	8.62
651.65	3.62
651.683	12.62
651.716	2.62
651.749	-2.38
651.783	3.62
651.816	-0.38
651.849	-0.38
651.882	-3.38
651.915	13.62
651.948	16.62
651.981	4.62
652.014	-11.38
652.047	-22.38
652.08	-12.38
652.114	4.62
652.147	8.62
652.18	1.62
652.213	24.62
652.246	2.62
652.279	-4.38
652.312	3.62
652.345	-12.38
652.378	-11.38
652.411	9.62
652.444	2.62
652.477	5.62
652.51	-14.38
652.543	-31.38
652.576	10.62
652.609	11.62
652.642	-5.38
652.675	11.62
652.709	-9.38
652.742	-1.38
652.775	3.62
652.808	20.62
652.841	7.62
652.874	5.62
652.907	-1.38
652.94	3.62
652.973	-11.38
653.006	6.62
653.039	4.62
653.072	-16.38
653.105	-6.38
653.138	-15.38
653.171	-7.38
653.204	2.62
653.237	-5.38
653.27	-8.38
653.303	3.62
653.336	8.62
653.368	-1.38
653.401	-2.38
653.434	-3.38
653.467	15.62
653.5	-14.38
653.533	-11.38
653.566	-17.38
653.599	-4.38
653.632	5.62
653.665	18.62
653.698	2.62
653.731	-10.38
653.764	3.62
653.797	3.62
653.83	5.62
653.863	0.62
653.896	-2.38
653.929	-5.38
653.961	7.62
653.994	6.62
654.027	-4.38
654.06	8.62
654.093	-7.38
654.126	3.62
654.159	-5.38
654.192	-3.38
654.225	8.62
654.258	9.62
654.29	4.62
654.323	14.62
654.356	6.62
654.389	4.62
654.422	4.62
654.455	4.62
654.488	8.62
654.521	-25.38
654.553	-22.38
654.586	1.62
654.619	2.62
654.652	-10.38
654.685	5.62
654.718	0.62
654.751	6.62
654.783	-12.38
654.816	13.62
654.849	1.62
654.882	-1.38
654.915	-23.38
654.948	2.62
654.98	-9.38
655.013	-7.38
655.046	-7.38
655.079	-1.38
655.112	2.62
655.144	-19.38
655.177	4.62
655.21	19.62
655.243	22.62
655.276	2.62
655.308	-18.38
655.341	-4.38
655.374	18.62
655.407	-6.38
655.44	10.62
655.472	13.62
655.505	-0.38
655.538	-0.38
655.571	15.62
655.603	-2.38
655.636	1.62
655.669	-2.38
655.702	2.62
655.734	-4.38
655.767	5.62
655.8	2.62
655.833	13.62
655.865	16.62
655.898	-3.38
655.931	9.62
655.964	19.62
655.996	13.62
656.029	20.62
656.062	31.62
656.095	36.62
656.127	77.62
656.16	212.62
656.193	631.62
656.225	970.62
656.258	556.62
656.291	215.62
656.324	198.62
656.356	364.62
656.389	765.62
656.422	688.62
656.454	246.62
656.487	87.62
656.52	29.62
656.552	13.62
656.585	7.62
656.618	7.62
656.65	13.62
656.683	12.62
656.716	5.62
656.748	-8.38
656.781	-7.38
656.814	-13.38
656.846	9.62
656.879	9.62
656.912	20.62
656.944	-8.38
656.977	-5.38
657.01	9.62
657.042	16.62
657.075	3.62
657.108	-13.38
657.14	6.62
657.173	3.62
657.205	11.62
657.238	6.62
657.271	9.62
657.303	-13.38
657.336	5.62
657.369	3.62
657.401	-8.38
657.434	11.62
657.466	27.62
657.499	-13.38
657.532	-7.38
657.564	11.62
657.597	8.62
657.629	-2.38
657.662	-0.38
657.694	0.62
657.727	-9.38
657.76	5.62
657.792	5.62
657.825	-6.38
657.857	-20.38
657.89	-20.38
657.922	11.62
657.955	2.62
657.987	5.62
658.02	5.62
658.053	24.62
658.085	10.62
658.118	-10.38
658.15	10.62
658.183	19.62
658.215	-5.38
658.248	-5.38
658.28	-16.38
658.313	-0.38
658.345	7.62
658.378	-9.38
658.41	4.62
658.443	15.62
658.475	-1.38
658.508	1.62
658.54	-4.38
658.573	-5.38
658.605	3.62
658.638	-4.38
658.67	-7.38
658.703	2.62
658.735	-18.38
658.768	10.62
658.8	-7.38
658.833	10.62
658.865	-4.38
658.898	1.62
658.93	-11.38
658.963	-9.38
658.995	-16.38
659.028	10.62
659.06	-1.38
659.092	-3.38
659.125	5.62
659.157	7.62
659.19	-3.38
659.222	15.62
659.255	6.62
659.287	-1.38
659.32	0.62
659.352	-5.38
659.384	-2.38
659.417	-11.38
659.449	3.62
659.482	3.62
659.514	-19.38
659.546	-2.38
659.579	1.62
659.611	2.62
659.644	6.62
659.676	-12.38
659.708	-15.38
659.741	-2.38
659.773	6.62
659.806	6.62
659.838	-1.38
659.87	-16.38
659.903	-9.38
659.935	-2.38
659.967	-11.38
660	3.62
660.032	-19.38
660.065	1.62
660.097	-0.38
660.129	-5.38
660.162	-8.38
660.194	20.62
660.226	13.62
660.259	17.62
660.291	1.62
660.323	-7.38
660.356	-5.38
660.388	-0.38
660.42	-1.38
660.453	2.62
660.485	10.62
660.517	18.62
660.55	25.62
660.582	6.62
660.614	6.62
660.647	5.62
660.679	-5.38
660.711	4.62
660.743	-9.38
660.776	-15.38
660.808	-4.38
660.84	-18.38
660.873	-10.38
660.905	0.62
660.937	11.62
660.969	5.62
661.002	-0.38
661.034	-4.38
661.066	-16.38
661.099	16.62
661.131	8.62
661.163	2.62
661.195	-2.38
661.228	6.62
661.26	-22.38
661.292	-10.38
661.324	9.62
661.357	3.62
661.389	-0.38
661.421	-5.38
661.453	-0.38
661.485	9.62
661.518	12.62
661.55	2.62
661.582	-11.38
661.614	-7.38
661.647	4.62
661.679	-2.38
661.711	3.62
661.743	4.62
661.775	7.62
661.808	16.62
661.84	-19.38
661.872	-1.38
661.904	4.62
661.936	-8.38
661.969	-4.38
662.001	7.62
662.033	-0.38
662.065	-10.38
662.097	9.62
662.129	15.62
662.162	-18.38
662.194	-2.38
662.226	0.62
662.258	-7.38
662.29	-14.38
662.322	-22.38
662.355	-20.38
662.387	20.62
662.419	12.62
662.451	3.62
662.483	0.62
662.515	2.62
662.547	-11.38
662.58	5.62
662.612	-2.38
662.644	-8.38
662.676	-1.38
662.708	7.62
662.74	0.62
662.772	-14.38
662.804	-12.38
662.836	7.62
662.869	-7.38
662.901	-10.38
662.933	-12.38
662.965	14.62
662.997	2.62
663.029	-10.38
663.061	11.62
663.093	-1.38
663.125	5.62
663.157	11.62
663.189	-10.38
663.221	-10.38
663.254	-14.38
663.286	15.62
663.318	-1.38
663.35	-16.38
663.382	-15.38
663.414	5.62
663.446	2.62
663.478	-18.38
663.51	25.62
663.542	0.62
663.574	-8.38
663.606	1.62
663.638	0.62
663.67	-5.38
663.702	0.62
663.734	-16.38
663.766	3.62
663.798	-4.38
663.83	-4.38
663.862	3.62
663.894	16.62
663.926	3.62
663.958	10.62
663.99	-8.38
664.022	-7.38
664.054	-10.38
664.086	-16.38
664.118	-5.38
664.15	-16.38
664.182	-8.38
664.214	-15.38
664.246	2.62
664.278	4.62
664.31	5.62
664.342	3.62
664.374	-0.38
664.406	-0.38
664.438	-6.38
664.47	10.62
664.502	8.62
664.534	-4.38
664.566	-6.38
664.598	0.62
664.63	-10.38
664.662	-13.38
664.693	-9.38
664.725	-5.38
664.757	2.62
664.789	-10.38
664.821	4.62
664.853	4.62
664.885	-0.38
664.917	-23.38
664.949	3.62
664.981	3.62
665.013	-2.38
665.045	-0.38
665.076	2.62
665.108	4.62
665.14	-2.38
665.172	-2.38
665.204	-8.38
665.236	-12.38
665.268	10.62
665.3	5.62
665.331	-7.38
665.363	19.62
665.395	-1.38
665.427	-6.38
665.459	-1.38
665.491	6.62
665.523	10.62
665.555	0.62
665.586	-13.38
665.618	-16.38
665.65	-13.38
665.682	11.62
665.714	7.62
665.746	-17.38
665.777	4.62
665.809	-5.38
665.841	-0.38
665.873	-5.38
665.905	6.62
665.937	20.62
665.968	-15.38
666	-4.38
666.032	6.62
666.064	0.62
666.096	-0.38
666.127	13.62
666.159	3.62
666.191	12.62
666.223	3.62
666.255	17.62
666.286	4.62
666.318	-12.38
666.35	13.62
666.382	3.62
666.413	-16.38
666.445	-18.38
666.477	-18.38
666.509	-3.38
666.54	-3.38
666.572	-7.38
666.604	-12.38
666.636	14.62
666.667	16.62
666.699	17.62
666.731	1.62
666.763	-11.38
666.794	-4.38
666.826	-12.38
666.858	-6.38
666.89	-0.38
666.921	6.62
666.953	14.62
666.985	17.62
667.017	23.62
667.048	4.62
667.08	4.62
667.112	-4.38
667.143	-16.38
667.175	-2.38
667.207	2.62
667.238	2.62
667.27	2.62
667.302	-4.38
667.334	-5.38
667.365	8.62
667.397	-9.38
667.429	-20.38
667.46	4.62
667.492	-4.38
667.524	1.62
667.555	-0.38
667.587	-11.38
667.619	-3.38
667.65	6.62
667.682	6.62
667.714	14.62
667.745	4.62
667.777	-8.38
667.808	11.62
667.84	16.62
667.872	7.62
667.903	29.62
667.935	-1.38
667.967	-11.38
667.998	-9.38
668.03	-13.38
668.061	-8.38
668.093	-8.38
668.125	15.62
668.156	8.62
668.188	-12.38
668.22	-9.38
668.251	10.62
668.283	7.62
668.314	5.62
668.346	-3.38
668.377	10.62
668.409	5.62
668.441	6.62
668.472	6.62
668.504	11.62
668.535	11.62
668.567	7.62
668.599	3.62
668.63	-0.38
668.662	-13.38
668.693	5.62
668.725	5.62
668.756	3.62
668.788	-6.38
668.819	-2.38
668.851	11.62
668.882	1.62
668.914	-16.38
668.946	-18.38
668.977	-8.38
669.009	-7.38
669.04	-12.38
669.072	5.62
669.103	16.62
669.135	-11.38
669.166	4.62
669.198	7.62
669.229	0.62
669.261	-8.38
669.292	-10.38
669.324	-0.38
669.355	-7.38
669.387	-19.38
669.418	6.62
669.45	-12.38
669.481	-1.38
669.513	7.62
669.544	2.62
669.576	0.62
669.607	16.62
669.639	10.62
669.67	-23.38
669.701	8.62
669.733	-14.38
669.764	8.62
669.796	-7.38
669.827	-14.38
669.859	19.62
669.89	11.62
669.922	7.62
669.953	9.62
669.985	5.62
670.016	6.62
670.047	-3.38
670.079	-5.38
670.11	-3.38
670.142	-8.38
670.173	12.62
670.204	-4.38
670.236	-1.38
670.267	-3.38
670.299	3.62
670.33	-3.38
670.362	5.62
670.393	-16.38
670.424	13.62
670.456	-5.38
670.487	-10.38
670.518	-17.38
670.55	8.62
670.581	5.62
670.613	4.62
670.644	-13.38
670.675	-22.38
670.707	-4.38
670.738	3.62
670.769	-5.38
670.801	-8.38
670.832	-1.38
670.864	-3.38
670.895	9.62
670.926	-1.38
670.958	-12.38
670.989	-0.38
671.02	-4.38
671.052	-9.38
671.083	-0.38
671.114	-24.38
671.146	-13.38
671.177	-8.38
671.208	-16.38
671.24	-16.38
671.271	8.62
671.302	20.62
671.333	8.62
671.365	3.62
671.396	-10.38
671.427	4.62
671.459	4.62
671.49	-7.38
671.521	4.62
671.553	10.62
671.584	20.62
671.615	-0.38
671.646	2.62
671.678	10.62
671.709	-3.38
671.74	-18.38
671.771	-4.38
671.803	-20.38
671.834	-19.38
671.865	-13.38
671.896	2.62
671.928	0.62
671.959	-3.38
671.99	-16.38
672.021	-18.38
672.053	-12.38
672.084	11.62
672.115	2.62
672.146	2.62
672.178	-20.38
672.209	2.62
672.24	6.62
672.271	14.62
672.303	-13.38
672.334	-2.38
672.365	-12.38
672.396	-12.38
672.427	6.62
672.459	5.62
672.49	1.62
672.521	-1.38
672.552	13.62
672.583	-14.38
672.615	-6.38
672.646	4.62
672.677	-2.38
672.708	4.62
672.739	10.62
672.77	7.62
672.802	0.62
672.833	-12.38
672.864	-0.38
672.895	-8.38
672.926	8.62
672.957	-9.38
672.989	-15.38
673.02	15.62
673.051	-12.38
673.082	7.62
673.113	1.62
673.144	2.62
673.175	2.62
673.206	-6.38
673.238	-21.38
673.269	2.62
673.3	-8.38
673.331	17.62
673.362	-0.38
673.393	4.62
673.424	8.62
673.455	12.62
673.487	7.62
673.518	12.62
673.549	7.62
673.58	-5.38
673.611	-8.38
673.642	-14.38
673.673	-12.38
673.704	6.62
673.735	-2.38
673.766	2.62
673.797	6.62
673.828	0.62
673.86	-2.38
673.891	-21.38
673.922	-16.38
673.953	-24.38
673.984	1.62
674.015	10.62
674.046	-13.38
674.077	-6.38
674.108	-6.38
674.139	-0.38
674.17	-2.38
674.201	-21.38
674.232	-13.38
674.263	-19.38
674.294	1.62
674.325	-2.38
674.356	1.62
674.387	6.62
674.418	11.62
674.449	-1.38
674.48	-28.38
674.511	-3.38
674.542	-9.38
674.573	-23.38
674.604	18.62
674.635	-6.38
674.666	11.62
674.697	20.62
674.728	10.62
674.759	2.62
674.79	-8.38
674.821	-8.38
674.852	2.62
674.883	-7.38
674.914	3.62
674.945	-4.38
674.976	7.62
675.007	-14.38
675.038	-13.38
675.069	-23.38
675.1	-4.38
675.131	0.62
675.162	-11.38
675.193	0.62
675.224	-3.38
675.254	7.62
675.285	-6.38
675.316	12.62
675.347	-4.38
675.378	-5.38
675.409	-13.38
675.44	5.62
675.471	-1.38
675.502	6.62
675.533	-13.38
675.564	-9.38
675.595	-5.38
675.625	21.62
675.656	15.62
675.687	9.62
675.718	-11.38
675.749	5.62
675.78	8.62
675.811	0.62
675.842	7.62
675.873	2.62
675.903	-8.38
675.934	-7.38
675.965	-5.38
675.996	-5.38
676.027	2.62
676.058	2.62
676.089	-16.38
676.119	-11.38
676.15	-9.38
676.181	-19.38
676.212	1.62
676.243	16.62
676.274	-8.38
676.304	16.62
676.335	-13.38
676.366	5.62
676.397	-9.38
676.428	5.62
676.459	3.62
676.489	6.62
676.52	8.62
676.551	6.62
676.582	-1.38
676.613	-3.38
676.643	-6.38
676.674	14.62
676.705	2.62
676.736	-18.38
676.767	10.62
676.797	7.62
676.828	1.62
676.859	9.62
676.89	-3.38
676.92	0.62
676.951	-0.38
676.982	13.62
677.013	-5.38
677.044	10.62
677.074	-5.38
677.105	-4.38
677.136	-1.38
677.167	-17.38
677.197	-4.38
677.228	-18.38
677.259	-6.38
677.289	-7.38
677.32	-21.38
677.351	-12.38
677.382	-8.38
677.412	-7.38
677.443	-15.38
677.474	-10.38
677.505	-11.38
677.535	3.62
677.566	-17.38
677.597	-10.38
677.627	-9.38
677.658	-14.38
677.689	-9.38
677.72	-5.38
677.75	-6.38
677.781	-2.38
677.812	9.62
677.842	7.62
677.873	8.62
677.904	3.62
677.934	2.62
677.965	-0.38
677.996	-19.38
678.026	-1.38
678.057	-9.38
678.088	-25.38
678.118	2.62
678.149	-17.38
678.18	-6.38
678.21	5.62
678.241	2.62
678.272	-9.38
678.302	0.62
678.333	5.62
678.363	9.62
678.394	13.62
678.425	5.62
678.455	1.62
678.486	19.62
678.517	-9.38
678.547	10.62
678.578	7.62
678.608	-9.38
678.639	7.62
678.67	6.62
678.7	0.62
678.731	1.62
678.761	9.62
678.792	7.62
678.823	7.62
678.853	-1.38
678.884	-11.38
678.914	3.62
678.945	-2.38
678.975	-13.38
679.006	-26.38
679.037	-10.38
679.067	29.62
679.098	15.62
679.128	-1.38
679.159	-7.38
679.189	8.62
679.22	8.62
679.25	10.62
679.281	9.62
679.312	0.62
679.342	12.62
679.373	25.62
679.403	-3.38
679.434	12.62
679.464	8.62
679.495	-10.38
679.525	1.62
679.556	4.62
679.586	20.62
679.617	16.62
679.647	0.62
679.678	10.62
679.708	7.62
679.739	6.62
679.769	2.62
679.8	-2.38
679.83	12.62
679.861	11.62
679.891	-24.38
679.922	-14.38
679.952	-21.38
679.983	-13.38
680.013	-2.38
680.044	-1.38
680.074	4.62
680.105	-5.38
680.135	-4.38
680.165	8.62
680.196	5.62
680.226	3.62
680.257	-1.38
680.287	-10.38
680.318	-3.38
680.348	-8.38
680.379	-1.38
680.409	-11.38
680.439	-12.38
680.47	2.62
680.5	7.62
680.531	-2.38
680.561	-3.38
680.592	4.62
680.622	15.62
680.652	-5.38
680.683	18.62
680.713	15.62
680.744	-15.38
680.774	-13.38
680.804	16.62
680.835	4.62
680.865	-18.38
680.896	10.62
680.926	15.62
680.956	9.62
680.987	9.62
681.017	-0.38
681.047	2.62
681.078	-13.38
681.108	-9.38
681.139	-8.38
681.169	-6.38
681.199	-8.38
681.23	-0.38
681.26	6.62
681.29	-2.38
681.321	-14.38
681.351	6.62
681.381	-3.38
681.412	4.62
681.442	16.62
681.472	-2.38
681.503	2.62
681.533	-9.38
681.563	-11.38
681.594	6.62
681.624	1.62
681.654	-5.38
681.685	3.62
681.715	11.62
681.745	6.62
681.775	-4.38
681.806	1.62
681.836	9.62
681.866	-0.38
681.897	0.62
681.927	-8.38
681.957	-16.38
681.987	8.62
682.018	10.62
682.048	1.62
682.078	0.62
682.109	5.62
682.139	16.62
682.169	13.62
682.199	2.62
682.23	-23.38
682.26	-3.38
682.29	7.62
682.32	-1.38
682.351	-10.38
