Data from HighRes_H2D2_15_04_11_07_2024_HR4C61891__81__15-05-42-542.txt Node

Date: Thu Nov 07 15:05:42 EST 2024
User: crc00042
Spectrometer: HR4C6189
Trigger mode: 4
Integration Time (sec): 1.000000E-1
Scans to average: 1
Electric dark correction enabled: true
Nonlinearity correction enabled: false
Boxcar width: 0
XAxis mode: Wavelengths
Number of Pixels in Spectrum: 3648
>>>>>Begin Spectral Data<<<<<
639.567	-52.69
639.602	-52.69
639.636	-52.69
639.67	-39.69
639.704	-13.69
639.738	-13.69
639.773	-2.69
639.807	-17.69
639.841	2.31
639.875	8.31
639.909	5.31
639.943	-12.69
639.978	12.31
640.012	7.31
640.046	11.31
640.08	6.31
640.114	8.31
640.148	-14.69
640.182	-7.69
640.217	-10.69
640.251	14.31
640.285	15.31
640.319	3.31
640.353	11.31
640.387	9.31
640.421	16.31
640.455	-0.69
640.49	2.31
640.524	16.31
640.558	-0.69
640.592	4.31
640.626	8.31
640.66	8.31
640.694	-18.69
640.728	18.31
640.762	7.31
640.796	13.31
640.83	14.31
640.865	9.31
640.899	3.31
640.933	3.31
640.967	-7.69
641.001	8.31
641.035	16.31
641.069	13.31
641.103	-2.69
641.137	-16.69
641.171	-9.69
641.205	27.31
641.239	10.31
641.273	19.31
641.307	21.31
641.341	6.31
641.375	-3.69
641.409	-21.69
641.443	9.31
641.477	4.31
641.511	1.31
641.545	-6.69
641.579	6.31
641.614	22.31
641.648	12.31
641.682	-8.69
641.716	15.31
641.75	31.31
641.784	2.31
641.818	0.31
641.852	7.31
641.886	-5.69
641.919	22.31
641.953	10.31
641.987	-5.69
642.021	11.31
642.055	-4.69
642.089	14.31
642.123	-7.69
642.157	10.31
642.191	-0.69
642.225	20.31
642.259	5.31
642.293	8.31
642.327	13.31
642.361	-2.69
642.395	20.31
642.429	8.31
642.463	18.31
642.497	19.31
642.531	15.31
642.565	-6.69
642.599	-0.69
642.633	-10.69
642.666	12.31
642.7	8.31
642.734	25.31
642.768	-4.69
642.802	4.31
642.836	12.31
642.87	7.31
642.904	11.31
642.938	10.31
642.972	2.31
643.005	7.31
643.039	10.31
643.073	11.31
643.107	7.31
643.141	6.31
643.175	8.31
643.209	4.31
643.243	15.31
643.276	3.31
643.31	9.31
643.344	-3.69
643.378	-3.69
643.412	12.31
643.446	10.31
643.48	10.31
643.513	11.31
643.547	15.31
643.581	0.31
643.615	1.31
643.649	4.31
643.683	5.31
643.716	12.31
643.75	21.31
643.784	-6.69
643.818	10.31
643.852	14.31
643.886	1.31
643.919	19.31
643.953	-5.69
643.987	-9.69
644.021	10.31
644.055	12.31
644.088	6.31
644.122	-10.69
644.156	0.31
644.19	-3.69
644.224	10.31
644.257	14.31
644.291	32.31
644.325	13.31
644.359	6.31
644.392	34.31
644.426	12.31
644.46	8.31
644.494	13.31
644.527	2.31
644.561	0.31
644.595	-8.69
644.629	15.31
644.662	-3.69
644.696	15.31
644.73	10.31
644.764	3.31
644.797	-5.69
644.831	7.31
644.865	18.31
644.899	6.31
644.932	28.31
644.966	11.31
645	-3.69
645.033	-5.69
645.067	-1.69
645.101	21.31
645.135	7.31
645.168	7.31
645.202	-1.69
645.236	-6.69
645.269	14.31
645.303	1.31
645.337	-12.69
645.37	7.31
645.404	25.31
645.438	-7.69
645.471	-3.69
645.505	16.31
645.539	-0.69
645.572	-7.69
645.606	1.31
645.64	1.31
645.673	8.31
645.707	9.31
645.741	12.31
645.774	-3.69
645.808	5.31
645.842	-1.69
645.875	11.31
645.909	7.31
645.943	0.31
645.976	-2.69
646.01	-0.69
646.043	11.31
646.077	9.31
646.111	-3.69
646.144	-0.69
646.178	11.31
646.212	-9.69
646.245	-8.69
646.279	12.31
646.312	22.31
646.346	26.31
646.38	-2.69
646.413	12.31
646.447	7.31
646.48	7.31
646.514	13.31
646.547	7.31
646.581	8.31
646.615	-2.69
646.648	-4.69
646.682	3.31
646.715	5.31
646.749	8.31
646.782	3.31
646.816	4.31
646.85	23.31
646.883	5.31
646.917	16.31
646.95	8.31
646.984	7.31
647.017	4.31
647.051	6.31
647.084	9.31
647.118	-7.69
647.151	5.31
647.185	4.31
647.218	-7.69
647.252	8.31
647.285	-5.69
647.319	7.31
647.353	24.31
647.386	25.31
647.42	4.31
647.453	-3.69
647.487	5.31
647.52	-3.69
647.553	-1.69
647.587	16.31
647.62	2.31
647.654	15.31
647.687	21.31
647.721	17.31
647.754	7.31
647.788	10.31
647.821	0.31
647.855	5.31
647.888	5.31
647.922	8.31
647.955	16.31
647.989	16.31
648.022	13.31
648.055	14.31
648.089	17.31
648.122	23.31
648.156	5.31
648.189	14.31
648.223	25.31
648.256	20.31
648.29	7.31
648.323	-0.69
648.356	16.31
648.39	29.31
648.423	17.31
648.457	-3.69
648.49	6.31
648.523	32.31
648.557	0.31
648.59	6.31
648.624	10.31
648.657	19.31
648.69	9.31
648.724	19.31
648.757	36.31
648.791	6.31
648.824	11.31
648.857	19.31
648.891	3.31
648.924	2.31
648.957	15.31
648.991	-17.69
649.024	15.31
649.057	10.31
649.091	19.31
649.124	15.31
649.158	16.31
649.191	30.31
649.224	9.31
649.258	10.31
649.291	0.31
649.324	11.31
649.358	9.31
649.391	8.31
649.424	13.31
649.458	0.31
649.491	17.31
649.524	14.31
649.557	-1.69
649.591	-11.69
649.624	7.31
649.657	3.31
649.691	-1.69
649.724	13.31
649.757	9.31
649.791	-1.69
649.824	14.31
649.857	-1.69
649.89	-3.69
649.924	-20.69
649.957	4.31
649.99	-12.69
650.023	3.31
650.057	-0.69
650.09	15.31
650.123	9.31
650.157	3.31
650.19	23.31
650.223	12.31
650.256	-11.69
650.29	-5.69
650.323	10.31
650.356	15.31
650.389	-12.69
650.423	-8.69
650.456	16.31
650.489	3.31
650.522	6.31
650.555	4.31
650.589	13.31
650.622	3.31
650.655	33.31
650.688	19.31
650.721	12.31
650.755	-1.69
650.788	21.31
650.821	11.31
650.854	5.31
650.887	16.31
650.921	3.31
650.954	6.31
650.987	-23.69
651.02	-23.69
651.053	-2.69
651.087	-11.69
651.12	30.31
651.153	13.31
651.186	4.31
651.219	-12.69
651.252	3.31
651.286	11.31
651.319	3.31
651.352	13.31
651.385	17.31
651.418	-0.69
651.451	19.31
651.484	12.31
651.518	-13.69
651.551	17.31
651.584	-20.69
651.617	16.31
651.65	13.31
651.683	8.31
651.716	16.31
651.749	-8.69
651.783	12.31
651.816	10.31
651.849	28.31
651.882	0.31
651.915	7.31
651.948	9.31
651.981	3.31
652.014	-17.69
652.047	-12.69
652.08	-11.69
652.114	-6.69
652.147	-10.69
652.18	2.31
652.213	48.31
652.246	14.31
652.279	10.31
652.312	6.31
652.345	7.31
652.378	5.31
652.411	18.31
652.444	15.31
652.477	6.31
652.51	17.31
652.543	6.31
652.576	3.31
652.609	8.31
652.642	-4.69
652.675	16.31
652.709	21.31
652.742	19.31
652.775	-2.69
652.808	14.31
652.841	13.31
652.874	9.31
652.907	1.31
652.94	7.31
652.973	-3.69
653.006	-14.69
653.039	4.31
653.072	5.31
653.105	9.31
653.138	-2.69
653.171	10.31
653.204	4.31
653.237	4.31
653.27	12.31
653.303	11.31
653.336	14.31
653.368	-3.69
653.401	19.31
653.434	-3.69
653.467	17.31
653.5	-4.69
653.533	1.31
653.566	12.31
653.599	22.31
653.632	-8.69
653.665	-1.69
653.698	-1.69
653.731	1.31
653.764	9.31
653.797	17.31
653.83	8.31
653.863	8.31
653.896	13.31
653.929	6.31
653.961	11.31
653.994	10.31
654.027	-9.69
654.06	8.31
654.093	26.31
654.126	-2.69
654.159	-3.69
654.192	17.31
654.225	5.31
654.258	3.31
654.29	-1.69
654.323	6.31
654.356	11.31
654.389	-0.69
654.422	4.31
654.455	14.31
654.488	2.31
654.521	-0.69
654.553	-14.69
654.586	9.31
654.619	9.31
654.652	11.31
654.685	-0.69
654.718	8.31
654.751	9.31
654.783	-2.69
654.816	11.31
654.849	7.31
654.882	5.31
654.915	-10.69
654.948	15.31
654.98	10.31
655.013	13.31
655.046	-22.69
655.079	-20.69
655.112	2.31
655.144	4.31
655.177	1.31
655.21	22.31
655.243	13.31
655.276	5.31
655.308	3.31
655.341	-16.69
655.374	4.31
655.407	-10.69
655.44	16.31
655.472	21.31
655.505	4.31
655.538	17.31
655.571	21.31
655.603	14.31
655.636	14.31
655.669	18.31
655.702	8.31
655.734	-9.69
655.767	8.31
655.8	12.31
655.833	18.31
655.865	26.31
655.898	9.31
655.931	2.31
655.964	29.31
655.996	28.31
656.029	14.31
656.062	45.31
656.095	56.31
656.127	66.31
656.16	223.31
656.193	630.31
656.225	931.31
656.258	562.31
656.291	235.31
656.324	184.31
656.356	364.31
656.389	767.31
656.422	697.31
656.454	243.31
656.487	96.31
656.52	39.31
656.552	24.31
656.585	25.31
656.618	31.31
656.65	26.31
656.683	10.31
656.716	10.31
656.748	-3.69
656.781	-1.69
656.814	2.31
656.846	14.31
656.879	12.31
656.912	0.31
656.944	-7.69
656.977	-0.69
657.01	-3.69
657.042	11.31
657.075	6.31
657.108	-0.69
657.14	18.31
657.173	22.31
657.205	19.31
657.238	8.31
657.271	6.31
657.303	10.31
657.336	-5.69
657.369	-1.69
657.401	11.31
657.434	6.31
657.466	9.31
657.499	5.31
657.532	13.31
657.564	6.31
657.597	6.31
657.629	13.31
657.662	3.31
657.694	17.31
657.727	12.31
657.76	21.31
657.792	-14.69
657.825	-3.69
657.857	0.31
657.89	-4.69
657.922	15.31
657.955	0.31
657.987	-1.69
658.02	19.31
658.053	18.31
658.085	-13.69
658.118	16.31
658.15	25.31
658.183	33.31
658.215	-13.69
658.248	-4.69
658.28	-14.69
658.313	22.31
658.345	14.31
658.378	-3.69
658.41	-16.69
658.443	11.31
658.475	11.31
658.508	2.31
658.54	1.31
658.573	-5.69
658.605	5.31
658.638	-7.69
658.67	-6.69
658.703	2.31
658.735	-11.69
658.768	-11.69
658.8	-2.69
658.833	8.31
658.865	8.31
658.898	6.31
658.93	-5.69
658.963	3.31
658.995	0.31
659.028	5.31
659.06	-2.69
659.092	-6.69
659.125	-6.69
659.157	16.31
659.19	-6.69
659.222	-4.69
659.255	16.31
659.287	-0.69
659.32	9.31
659.352	-5.69
659.384	12.31
659.417	12.31
659.449	7.31
659.482	18.31
659.514	-6.69
659.546	-6.69
659.579	-14.69
659.611	10.31
659.644	-10.69
659.676	-10.69
659.708	-5.69
659.741	-12.69
659.773	8.31
659.806	-4.69
659.838	-1.69
659.87	-6.69
659.903	-2.69
659.935	-4.69
659.967	-3.69
660	9.31
660.032	0.31
660.065	14.31
660.097	0.31
660.129	-1.69
660.162	5.31
660.194	14.31
660.226	8.31
660.259	4.31
660.291	2.31
660.323	5.31
660.356	20.31
660.388	0.31
660.42	-11.69
660.453	-13.69
660.485	-7.69
660.517	20.31
660.55	9.31
660.582	16.31
660.614	-1.69
660.647	15.31
660.679	7.31
660.711	12.31
660.743	-5.69
660.776	5.31
660.808	-5.69
660.84	10.31
660.873	10.31
660.905	-2.69
660.937	11.31
660.969	8.31
661.002	13.31
661.034	11.31
661.066	2.31
661.099	10.31
661.131	14.31
661.163	2.31
661.195	12.31
661.228	10.31
661.26	-4.69
661.292	0.31
661.324	5.31
661.357	11.31
661.389	10.31
661.421	-3.69
661.453	0.31
661.485	-9.69
661.518	9.31
661.55	-12.69
661.582	-18.69
661.614	-4.69
661.647	14.31
661.679	6.31
661.711	1.31
661.743	-17.69
661.775	8.31
661.808	11.31
661.84	-18.69
661.872	9.31
661.904	8.31
661.936	12.31
661.969	8.31
662.001	7.31
662.033	4.31
662.065	-20.69
662.097	24.31
662.129	6.31
662.162	0.31
662.194	4.31
662.226	6.31
662.258	13.31
662.29	15.31
662.322	-8.69
662.355	-14.69
662.387	26.31
662.419	24.31
662.451	21.31
662.483	9.31
662.515	-12.69
662.547	-6.69
662.58	-10.69
662.612	5.31
662.644	-9.69
662.676	0.31
662.708	21.31
662.74	-12.69
662.772	5.31
662.804	-2.69
662.836	13.31
662.869	-10.69
662.901	12.31
662.933	-5.69
662.965	12.31
662.997	15.31
663.029	-7.69
663.061	5.31
663.093	5.31
663.125	9.31
663.157	16.31
663.189	0.31
663.221	-0.69
663.254	6.31
663.286	20.31
663.318	1.31
663.35	5.31
663.382	2.31
663.414	13.31
663.446	13.31
663.478	-4.69
663.51	19.31
663.542	5.31
663.574	-21.69
663.606	5.31
663.638	-4.69
663.67	-10.69
663.702	9.31
663.734	7.31
663.766	5.31
663.798	15.31
663.83	8.31
663.862	13.31
663.894	5.31
663.926	4.31
663.958	33.31
663.99	1.31
664.022	-15.69
664.054	6.31
664.086	-11.69
664.118	-8.69
664.15	12.31
664.182	2.31
664.214	-1.69
664.246	16.31
664.278	3.31
664.31	8.31
664.342	-3.69
664.374	3.31
664.406	-2.69
664.438	10.31
664.47	15.31
664.502	2.31
664.534	-5.69
664.566	-8.69
664.598	12.31
664.63	-2.69
664.662	8.31
664.693	-3.69
664.725	0.31
664.757	14.31
664.789	-7.69
664.821	12.31
664.853	21.31
664.885	8.31
664.917	-12.69
664.949	4.31
664.981	20.31
665.013	-0.69
665.045	-4.69
665.076	10.31
665.108	10.31
665.14	5.31
665.172	3.31
665.204	7.31
665.236	8.31
665.268	22.31
665.3	4.31
665.331	-10.69
665.363	4.31
665.395	-10.69
665.427	1.31
665.459	12.31
665.491	4.31
665.523	8.31
665.555	9.31
665.586	-0.69
665.618	-13.69
665.65	-17.69
665.682	-1.69
665.714	26.31
665.746	-7.69
665.777	-4.69
665.809	3.31
665.841	5.31
665.873	13.31
665.905	16.31
665.937	12.31
665.968	20.31
666	16.31
666.032	21.31
666.064	12.31
666.096	-3.69
666.127	8.31
666.159	33.31
666.191	8.31
666.223	7.31
666.255	-1.69
666.286	1.31
666.318	-1.69
666.35	23.31
666.382	0.31
666.413	8.31
666.445	-14.69
666.477	-1.69
666.509	0.31
666.54	6.31
666.572	4.31
666.604	9.31
666.636	13.31
666.667	26.31
666.699	15.31
666.731	4.31
666.763	-8.69
666.794	5.31
666.826	15.31
666.858	-2.69
666.89	14.31
666.921	6.31
666.953	2.31
666.985	5.31
667.017	31.31
667.048	34.31
667.08	11.31
667.112	6.31
667.143	-6.69
667.175	3.31
667.207	9.31
667.238	21.31
667.27	-6.69
667.302	18.31
667.334	7.31
667.365	24.31
667.397	20.31
667.429	-12.69
667.46	6.31
667.492	-0.69
667.524	12.31
667.555	-14.69
667.587	-3.69
667.619	-6.69
667.65	-7.69
667.682	13.31
667.714	11.31
667.745	15.31
667.777	5.31
667.808	20.31
667.84	22.31
667.872	5.31
667.903	26.31
667.935	-11.69
667.967	12.31
667.998	21.31
668.03	-4.69
668.061	9.31
668.093	10.31
668.125	24.31
668.156	14.31
668.188	24.31
668.22	-0.69
668.251	3.31
668.283	14.31
668.314	11.31
668.346	8.31
668.377	-5.69
668.409	8.31
668.441	4.31
668.472	1.31
668.504	3.31
668.535	9.31
668.567	21.31
668.599	5.31
668.63	12.31
668.662	12.31
668.693	2.31
668.725	5.31
668.756	16.31
668.788	1.31
668.819	-1.69
668.851	8.31
668.882	8.31
668.914	0.31
668.946	-4.69
668.977	6.31
669.009	-3.69
669.04	-19.69
669.072	5.31
669.103	4.31
669.135	5.31
669.166	8.31
669.198	8.31
669.229	-5.69
669.261	0.31
669.292	4.31
669.324	6.31
669.355	30.31
669.387	5.31
669.418	16.31
669.45	-3.69
669.481	-12.69
669.513	12.31
669.544	2.31
669.576	6.31
669.607	12.31
669.639	20.31
669.67	-4.69
669.701	8.31
669.733	4.31
669.764	9.31
669.796	2.31
669.827	-3.69
669.859	6.31
669.89	9.31
669.922	12.31
669.953	27.31
669.985	11.31
670.016	12.31
670.047	11.31
670.079	-2.69
670.11	-11.69
670.142	-9.69
670.173	-1.69
670.204	4.31
670.236	5.31
670.267	0.31
670.299	12.31
670.33	-7.69
670.362	8.31
670.393	-0.69
670.424	9.31
670.456	-11.69
670.487	5.31
670.518	-0.69
670.55	1.31
670.581	-0.69
670.613	6.31
670.644	0.31
670.675	0.31
670.707	7.31
670.738	13.31
670.769	-2.69
670.801	0.31
670.832	9.31
670.864	-5.69
670.895	14.31
670.926	3.31
670.958	-6.69
670.989	-7.69
671.02	-5.69
671.052	8.31
671.083	12.31
671.114	2.31
671.146	15.31
671.177	16.31
671.208	0.31
671.24	-0.69
671.271	4.31
671.302	7.31
671.333	-6.69
671.365	1.31
671.396	14.31
671.427	10.31
671.459	0.31
671.49	7.31
671.521	28.31
671.553	28.31
671.584	7.31
671.615	1.31
671.646	17.31
671.678	12.31
671.709	-10.69
671.74	-19.69
671.771	0.31
671.803	-8.69
671.834	-3.69
671.865	-6.69
671.896	10.31
671.928	-10.69
671.959	6.31
671.99	-0.69
672.021	-1.69
672.053	1.31
672.084	12.31
672.115	9.31
672.146	5.31
672.178	-5.69
672.209	-0.69
672.24	-4.69
672.271	47.31
672.303	3.31
672.334	4.31
672.365	-0.69
672.396	1.31
672.427	19.31
672.459	14.31
672.49	9.31
672.521	25.31
672.552	22.31
672.583	18.31
672.615	3.31
672.646	13.31
672.677	9.31
672.708	1.31
672.739	9.31
672.77	29.31
672.802	11.31
672.833	4.31
672.864	2.31
672.895	15.31
672.926	0.31
672.957	-18.69
672.989	8.31
673.02	5.31
673.051	3.31
673.082	20.31
673.113	7.31
673.144	22.31
673.175	10.31
673.206	6.31
673.238	-6.69
673.269	4.31
673.3	-11.69
673.331	7.31
673.362	2.31
673.393	19.31
673.424	18.31
673.455	15.31
673.487	14.31
673.518	2.31
673.549	6.31
673.58	7.31
673.611	11.31
673.642	18.31
673.673	-8.69
673.704	16.31
673.735	11.31
673.766	5.31
673.797	2.31
673.828	7.31
673.86	6.31
673.891	-3.69
673.922	-2.69
673.953	3.31
673.984	8.31
674.015	28.31
674.046	5.31
674.077	21.31
674.108	2.31
674.139	0.31
674.17	8.31
674.201	0.31
674.232	0.31
674.263	0.31
674.294	-8.69
674.325	-0.69
674.356	5.31
674.387	14.31
674.418	11.31
674.449	-0.69
674.48	-16.69
674.511	10.31
674.542	10.31
674.573	1.31
674.604	11.31
674.635	-10.69
674.666	12.31
674.697	8.31
674.728	-11.69
674.759	10.31
674.79	-3.69
674.821	12.31
674.852	-2.69
674.883	4.31
674.914	-13.69
674.945	-4.69
674.976	25.31
675.007	5.31
675.038	10.31
675.069	-9.69
675.1	5.31
675.131	10.31
675.162	-3.69
675.193	-2.69
675.224	-2.69
675.254	4.31
675.285	9.31
675.316	19.31
675.347	13.31
675.378	3.31
675.409	-16.69
675.44	0.31
675.471	3.31
675.502	-4.69
675.533	5.31
675.564	-3.69
675.595	-5.69
675.625	25.31
675.656	11.31
675.687	19.31
675.718	-4.69
675.749	8.31
675.78	-1.69
675.811	3.31
675.842	4.31
675.873	-7.69
675.903	-9.69
675.934	0.31
675.965	6.31
675.996	3.31
676.027	26.31
676.058	0.31
676.089	-5.69
676.119	1.31
676.15	-2.69
676.181	-1.69
676.212	10.31
676.243	14.31
676.274	8.31
676.304	13.31
676.335	-1.69
676.366	-3.69
676.397	3.31
676.428	8.31
676.459	10.31
676.489	9.31
676.52	13.31
676.551	21.31
676.582	-7.69
676.613	-3.69
676.643	-5.69
676.674	4.31
676.705	2.31
676.736	13.31
676.767	17.31
676.797	8.31
676.828	1.31
676.859	11.31
676.89	-8.69
676.92	5.31
676.951	4.31
676.982	7.31
677.013	0.31
677.044	24.31
677.074	8.31
677.105	-13.69
677.136	12.31
677.167	12.31
677.197	17.31
677.228	-0.69
677.259	-11.69
677.289	8.31
677.32	-1.69
677.351	-4.69
677.382	-17.69
677.412	-6.69
677.443	12.31
677.474	8.31
677.505	-19.69
677.535	0.31
677.566	-14.69
677.597	-4.69
677.627	1.31
677.658	-10.69
677.689	-15.69
677.72	-17.69
677.75	4.31
677.781	5.31
677.812	3.31
677.842	19.31
677.873	7.31
677.904	19.31
677.934	2.31
677.965	-3.69
677.996	-10.69
678.026	-5.69
678.057	-0.69
678.088	-9.69
678.118	2.31
678.149	-4.69
678.18	-2.69
678.21	2.31
678.241	6.31
678.272	0.31
678.302	7.31
678.333	17.31
678.363	10.31
678.394	9.31
678.425	4.31
678.455	1.31
678.486	27.31
678.517	2.31
678.547	6.31
678.578	1.31
678.608	-1.69
678.639	4.31
678.67	5.31
678.7	3.31
678.731	16.31
678.761	2.31
678.792	18.31
678.823	6.31
678.853	1.31
678.884	-10.69
678.914	15.31
678.945	11.31
678.975	10.31
679.006	2.31
679.037	-5.69
679.067	28.31
679.098	14.31
679.128	-7.69
679.159	-1.69
679.189	20.31
679.22	1.31
679.25	20.31
679.281	6.31
679.312	-1.69
679.342	11.31
679.373	28.31
679.403	10.31
679.434	4.31
679.464	2.31
679.495	-5.69
679.525	-1.69
679.556	16.31
679.586	13.31
679.617	1.31
679.647	4.31
679.678	8.31
679.708	7.31
679.739	-11.69
679.769	6.31
679.8	-2.69
679.83	6.31
679.861	12.31
679.891	8.31
679.922	-7.69
679.952	-13.69
679.983	-10.69
680.013	13.31
680.044	21.31
680.074	22.31
680.105	-2.69
680.135	2.31
680.165	1.31
680.196	10.31
680.226	12.31
680.257	18.31
680.287	4.31
680.318	11.31
680.348	-3.69
680.379	14.31
680.409	7.31
680.439	-4.69
680.47	-15.69
680.5	-16.69
680.531	18.31
680.561	16.31
680.592	12.31
680.622	13.31
680.652	-3.69
680.683	21.31
680.713	14.31
680.744	-2.69
680.774	-0.69
680.804	18.31
680.835	-3.69
680.865	-7.69
680.896	9.31
680.926	0.31
680.956	9.31
680.987	12.31
681.017	-3.69
681.047	12.31
681.078	-11.69
681.108	6.31
681.139	21.31
681.169	-7.69
681.199	-2.69
681.23	9.31
681.26	-1.69
681.29	-6.69
681.321	0.31
681.351	24.31
681.381	-4.69
681.412	-0.69
681.442	10.31
681.472	22.31
681.503	12.31
681.533	9.31
681.563	3.31
681.594	7.31
681.624	14.31
681.654	2.31
681.685	2.31
681.715	13.31
681.745	6.31
681.775	0.31
681.806	9.31
681.836	5.31
681.866	-1.69
681.897	8.31
681.927	3.31
681.957	-7.69
681.987	6.31
682.018	11.31
682.048	-1.69
682.078	16.31
682.109	17.31
682.139	22.31
682.169	-0.69
682.199	-2.69
682.23	-2.69
682.26	4.31
682.29	-0.69
682.32	8.31
682.351	6.31
682.381	-2.69
682.411	-7.69
682.441	-7.69
682.472	-6.69
682.502	4.31
682.532	-0.69
682.562	12.31
682.592	12.31
682.623	-0.69
682.653	9.31
682.683	-1.69
682.713	15.31
