Data from HighRes_H2D2_15_04_11_07_2024_HR4C61891__74__15-05-41-843.txt Node

Date: Thu Nov 07 15:05:41 EST 2024
User: crc00042
Spectrometer: HR4C6189
Trigger mode: 4
Integration Time (sec): 1.000000E-1
Scans to average: 1
Electric dark correction enabled: true
Nonlinearity correction enabled: false
Boxcar width: 0
XAxis mode: Wavelengths
Number of Pixels in Spectrum: 3648
>>>>>Begin Spectral Data<<<<<
639.567	-78.69
639.602	-78.69
639.636	-78.69
639.67	-52.69
639.704	-22.69
639.738	-18.69
639.773	10.31
639.807	-25.69
639.841	12.31
639.875	19.31
639.909	4.31
639.943	-5.69
639.978	-4.69
640.012	-0.69
640.046	15.31
640.08	7.31
640.114	-10.69
640.148	-2.69
640.182	-12.69
640.217	-0.69
640.251	20.31
640.285	8.31
640.319	-2.69
640.353	-8.69
640.387	2.31
640.421	5.31
640.455	-7.69
640.49	-1.69
640.524	-10.69
640.558	14.31
640.592	10.31
640.626	-9.69
640.66	13.31
640.694	-7.69
640.728	5.31
640.762	15.31
640.796	17.31
640.83	-1.69
640.865	-13.69
640.899	7.31
640.933	-2.69
640.967	1.31
641.001	1.31
641.035	8.31
641.069	-12.69
641.103	-10.69
641.137	-11.69
641.171	-6.69
641.205	0.31
641.239	-5.69
641.273	8.31
641.307	-4.69
641.341	-9.69
641.375	2.31
641.409	-0.69
641.443	2.31
641.477	4.31
641.511	-3.69
641.545	-13.69
641.579	-18.69
641.614	4.31
641.648	7.31
641.682	-13.69
641.716	-14.69
641.75	14.31
641.784	4.31
641.818	-7.69
641.852	-13.69
641.886	-4.69
641.919	7.31
641.953	4.31
641.987	-10.69
642.021	-0.69
642.055	2.31
642.089	-8.69
642.123	-6.69
642.157	-18.69
642.191	8.31
642.225	8.31
642.259	2.31
642.293	11.31
642.327	-4.69
642.361	-19.69
642.395	3.31
642.429	1.31
642.463	7.31
642.497	17.31
642.531	8.31
642.565	-16.69
642.599	10.31
642.633	-14.69
642.666	14.31
642.7	22.31
642.734	10.31
642.768	-22.69
642.802	-4.69
642.836	6.31
642.87	-5.69
642.904	15.31
642.938	3.31
642.972	7.31
643.005	11.31
643.039	28.31
643.073	6.31
643.107	4.31
643.141	-5.69
643.175	-2.69
643.209	-0.69
643.243	3.31
643.276	5.31
643.31	-9.69
643.344	5.31
643.378	0.31
643.412	2.31
643.446	10.31
643.48	-7.69
643.513	11.31
643.547	-4.69
643.581	-4.69
643.615	0.31
643.649	-7.69
643.683	-16.69
643.716	-11.69
643.75	7.31
643.784	-11.69
643.818	1.31
643.852	-9.69
643.886	2.31
643.919	-1.69
643.953	-5.69
643.987	2.31
644.021	12.31
644.055	6.31
644.088	-8.69
644.122	-6.69
644.156	-9.69
644.19	3.31
644.224	7.31
644.257	7.31
644.291	7.31
644.325	-3.69
644.359	-22.69
644.392	10.31
644.426	5.31
644.46	2.31
644.494	9.31
644.527	-7.69
644.561	2.31
644.595	-1.69
644.629	3.31
644.662	6.31
644.696	26.31
644.73	-13.69
644.764	4.31
644.797	5.31
644.831	-1.69
644.865	8.31
644.899	3.31
644.932	7.31
644.966	0.31
645	7.31
645.033	2.31
645.067	-9.69
645.101	-0.69
645.135	12.31
645.168	3.31
645.202	-12.69
645.236	2.31
645.269	0.31
645.303	0.31
645.337	-11.69
645.37	-6.69
645.404	-2.69
645.438	-8.69
645.471	-1.69
645.505	6.31
645.539	0.31
645.572	-20.69
645.606	-12.69
645.64	-6.69
645.673	3.31
645.707	9.31
645.741	-7.69
645.774	-0.69
645.808	5.31
645.842	-5.69
645.875	5.31
645.909	-8.69
645.943	5.31
645.976	4.31
646.01	4.31
646.043	-4.69
646.077	-5.69
646.111	2.31
646.144	1.31
646.178	17.31
646.212	-3.69
646.245	-1.69
646.279	-1.69
646.312	2.31
646.346	4.31
646.38	6.31
646.413	-2.69
646.447	-4.69
646.48	8.31
646.514	-6.69
646.547	0.31
646.581	9.31
646.615	8.31
646.648	-4.69
646.682	7.31
646.715	-6.69
646.749	8.31
646.782	5.31
646.816	-1.69
646.85	8.31
646.883	1.31
646.917	10.31
646.95	9.31
646.984	12.31
647.017	-7.69
647.051	-11.69
647.084	4.31
647.118	-14.69
647.151	1.31
647.185	-13.69
647.218	-30.69
647.252	2.31
647.285	-12.69
647.319	-11.69
647.353	11.31
647.386	13.31
647.42	-5.69
647.453	-18.69
647.487	-3.69
647.52	-4.69
647.553	0.31
647.587	0.31
647.62	-2.69
647.654	-3.69
647.687	3.31
647.721	6.31
647.754	-8.69
647.788	-7.69
647.821	-13.69
647.855	14.31
647.888	3.31
647.922	-6.69
647.955	14.31
647.989	-4.69
648.022	2.31
648.055	10.31
648.089	8.31
648.122	13.31
648.156	-8.69
648.189	7.31
648.223	13.31
648.256	20.31
648.29	6.31
648.323	6.31
648.356	14.31
648.39	2.31
648.423	7.31
648.457	1.31
648.49	20.31
648.523	-2.69
648.557	-9.69
648.59	-10.69
648.624	-17.69
648.657	-6.69
648.69	6.31
648.724	-7.69
648.757	9.31
648.791	4.31
648.824	11.31
648.857	16.31
648.891	0.31
648.924	2.31
648.957	10.31
648.991	-17.69
649.024	11.31
649.057	-2.69
649.091	-1.69
649.124	11.31
649.158	14.31
649.191	23.31
649.224	10.31
649.258	-1.69
649.291	12.31
649.324	14.31
649.358	6.31
649.391	7.31
649.424	4.31
649.458	-7.69
649.491	3.31
649.524	-21.69
649.557	-21.69
649.591	-22.69
649.624	15.31
649.657	-5.69
649.691	11.31
649.724	4.31
649.757	-13.69
649.791	-37.69
649.824	5.31
649.857	19.31
649.89	2.31
649.924	-18.69
649.957	-17.69
649.99	1.31
650.023	5.31
650.057	-2.69
650.09	5.31
650.123	14.31
650.157	3.31
650.19	19.31
650.223	-2.69
650.256	-21.69
650.29	-16.69
650.323	-8.69
650.356	13.31
650.389	0.31
650.423	1.31
650.456	-5.69
650.489	-4.69
650.522	-0.69
650.555	15.31
650.589	16.31
650.622	7.31
650.655	-0.69
650.688	16.31
650.721	-0.69
650.755	13.31
650.788	21.31
650.821	-4.69
650.854	-12.69
650.887	-18.69
650.921	-6.69
650.954	-13.69
650.987	8.31
651.02	4.31
651.053	0.31
651.087	-20.69
651.12	14.31
651.153	-7.69
651.186	1.31
651.219	-8.69
651.252	10.31
651.286	21.31
651.319	-2.69
651.352	-2.69
651.385	2.31
651.418	-7.69
651.451	8.31
651.484	13.31
651.518	-12.69
651.551	2.31
651.584	-14.69
651.617	13.31
651.65	5.31
651.683	-0.69
651.716	-3.69
651.749	-22.69
651.783	5.31
651.816	-0.69
651.849	9.31
651.882	-25.69
651.915	-7.69
651.948	11.31
651.981	-13.69
652.014	-14.69
652.047	-9.69
652.08	-1.69
652.114	-1.69
652.147	-4.69
652.18	2.31
652.213	33.31
652.246	-3.69
652.279	-10.69
652.312	5.31
652.345	2.31
652.378	13.31
652.411	19.31
652.444	6.31
652.477	2.31
652.51	-10.69
652.543	-9.69
652.576	-13.69
652.609	-0.69
652.642	1.31
652.675	12.31
652.709	2.31
652.742	10.31
652.775	10.31
652.808	18.31
652.841	5.31
652.874	4.31
652.907	-3.69
652.94	2.31
652.973	-13.69
653.006	-13.69
653.039	-21.69
653.072	-6.69
653.105	-11.69
653.138	-2.69
653.171	-7.69
653.204	-9.69
653.237	2.31
653.27	-13.69
653.303	-9.69
653.336	-3.69
653.368	-16.69
653.401	8.31
653.434	-1.69
653.467	4.31
653.5	-23.69
653.533	-23.69
653.566	10.31
653.599	-1.69
653.632	-5.69
653.665	14.31
653.698	-3.69
653.731	-10.69
653.764	-9.69
653.797	-0.69
653.83	10.31
653.863	4.31
653.896	-3.69
653.929	-9.69
653.961	-1.69
653.994	-0.69
654.027	-25.69
654.06	9.31
654.093	7.31
654.126	-0.69
654.159	-8.69
654.192	14.31
654.225	-4.69
654.258	1.31
654.29	5.31
654.323	8.31
654.356	-9.69
654.389	-4.69
654.422	3.31
654.455	8.31
654.488	-2.69
654.521	-19.69
654.553	-17.69
654.586	2.31
654.619	-3.69
654.652	-3.69
654.685	3.31
654.718	-13.69
654.751	15.31
654.783	-10.69
654.816	-3.69
654.849	-6.69
654.882	-13.69
654.915	-21.69
654.948	-9.69
654.98	-1.69
655.013	4.31
655.046	-9.69
655.079	-23.69
655.112	2.31
655.144	-16.69
655.177	11.31
655.21	17.31
655.243	32.31
655.276	13.31
655.308	-0.69
655.341	-12.69
655.374	-0.69
655.407	-5.69
655.44	-13.69
655.472	4.31
655.505	0.31
655.538	1.31
655.571	-3.69
655.603	-9.69
655.636	12.31
655.669	15.31
655.702	5.31
655.734	-12.69
655.767	-12.69
655.8	9.31
655.833	15.31
655.865	14.31
655.898	2.31
655.931	11.31
655.964	14.31
655.996	20.31
656.029	20.31
656.062	25.31
656.095	51.31
656.127	76.31
656.16	205.31
656.193	615.31
656.225	935.31
656.258	537.31
656.291	202.31
656.324	171.31
656.356	346.31
656.389	750.31
656.422	647.31
656.454	220.31
656.487	78.31
656.52	37.31
656.552	11.31
656.585	0.31
656.618	26.31
656.65	9.31
656.683	-3.69
656.716	3.31
656.748	-1.69
656.781	-5.69
656.814	5.31
656.846	-0.69
656.879	19.31
656.912	6.31
656.944	-14.69
656.977	-12.69
657.01	6.31
657.042	0.31
657.075	12.31
657.108	-10.69
657.14	4.31
657.173	30.31
657.205	32.31
657.238	-0.69
657.271	-5.69
657.303	-14.69
657.336	-5.69
657.369	4.31
657.401	4.31
657.434	-3.69
657.466	19.31
657.499	2.31
657.532	-9.69
657.564	5.31
657.597	-4.69
657.629	12.31
657.662	-10.69
657.694	6.31
657.727	-5.69
657.76	10.31
657.792	-0.69
657.825	-10.69
657.857	5.31
657.89	-6.69
657.922	-8.69
657.955	-2.69
657.987	10.31
658.02	22.31
658.053	0.31
658.085	-6.69
658.118	4.31
658.15	12.31
658.183	9.31
658.215	-2.69
658.248	9.31
658.28	-12.69
658.313	25.31
658.345	9.31
658.378	5.31
658.41	-5.69
658.443	10.31
658.475	9.31
658.508	-19.69
658.54	-2.69
658.573	1.31
658.605	-1.69
658.638	-20.69
658.67	1.31
658.703	-1.69
658.735	1.31
658.768	1.31
658.8	-19.69
658.833	11.31
658.865	-3.69
658.898	-6.69
658.93	5.31
658.963	-4.69
658.995	-11.69
659.028	-10.69
659.06	-2.69
659.092	-4.69
659.125	5.31
659.157	6.31
659.19	-10.69
659.222	-9.69
659.255	5.31
659.287	2.31
659.32	7.31
659.352	4.31
659.384	6.31
659.417	7.31
659.449	7.31
659.482	7.31
659.514	-9.69
659.546	-6.69
659.579	-10.69
659.611	14.31
659.644	7.31
659.676	-2.69
659.708	-4.69
659.741	-10.69
659.773	-12.69
659.806	-8.69
659.838	-7.69
659.87	-8.69
659.903	-6.69
659.935	-0.69
659.967	2.31
660	3.31
660.032	-19.69
660.065	14.31
660.097	-6.69
660.129	-8.69
660.162	-19.69
660.194	-7.69
660.226	5.31
660.259	6.31
660.291	-1.69
660.323	-20.69
660.356	-2.69
660.388	-10.69
660.42	8.31
660.453	7.31
660.485	10.31
660.517	8.31
660.55	7.31
660.582	-4.69
660.614	8.31
660.647	-2.69
660.679	-40.69
660.711	-3.69
660.743	-17.69
660.776	-9.69
660.808	1.31
660.84	3.31
660.873	-0.69
660.905	-11.69
660.937	-4.69
660.969	-9.69
661.002	-6.69
661.034	16.31
661.066	-6.69
661.099	2.31
661.131	10.31
661.163	14.31
661.195	15.31
661.228	19.31
661.26	-16.69
661.292	-17.69
661.324	-6.69
661.357	-1.69
661.389	2.31
661.421	-8.69
661.453	-13.69
661.485	10.31
661.518	5.31
661.55	-15.69
661.582	-17.69
661.614	-2.69
661.647	7.31
661.679	2.31
661.711	-9.69
661.743	-21.69
661.775	-2.69
661.808	21.31
661.84	1.31
661.872	9.31
661.904	7.31
661.936	-1.69
661.969	-9.69
662.001	-13.69
662.033	-5.69
662.065	1.31
662.097	10.31
662.129	4.31
662.162	-4.69
662.194	3.31
662.226	-6.69
662.258	-4.69
662.29	-7.69
662.322	-5.69
662.355	-11.69
662.387	7.31
662.419	17.31
662.451	9.31
662.483	15.31
662.515	3.31
662.547	4.31
662.58	4.31
662.612	-21.69
662.644	4.31
662.676	-6.69
662.708	16.31
662.74	18.31
662.772	8.31
662.804	6.31
662.836	12.31
662.869	-8.69
662.901	-0.69
662.933	0.31
662.965	8.31
662.997	-9.69
663.029	-11.69
663.061	-7.69
663.093	1.31
663.125	8.31
663.157	0.31
663.189	-4.69
663.221	11.31
663.254	4.31
663.286	8.31
663.318	-26.69
663.35	-24.69
663.382	-8.69
663.414	1.31
663.446	7.31
663.478	-4.69
663.51	8.31
663.542	2.31
663.574	1.31
663.606	6.31
663.638	-1.69
663.67	-9.69
663.702	-0.69
663.734	3.31
663.766	-5.69
663.798	-12.69
663.83	1.31
663.862	4.31
663.894	8.31
663.926	-2.69
663.958	7.31
663.99	-2.69
664.022	-11.69
664.054	10.31
664.086	-17.69
664.118	-12.69
664.15	-21.69
664.182	-6.69
664.214	-15.69
664.246	9.31
664.278	-3.69
664.31	-1.69
664.342	2.31
664.374	-11.69
664.406	-9.69
664.438	-8.69
664.47	13.31
664.502	1.31
664.534	-1.69
664.566	-6.69
664.598	10.31
664.63	-12.69
664.662	4.31
664.693	1.31
664.725	0.31
664.757	1.31
664.789	-12.69
664.821	-4.69
664.853	13.31
664.885	-15.69
664.917	-21.69
664.949	26.31
664.981	25.31
665.013	7.31
665.045	-11.69
665.076	-3.69
665.108	1.31
665.14	-9.69
665.172	-1.69
665.204	-5.69
665.236	-0.69
665.268	5.31
665.3	-2.69
665.331	-1.69
665.363	-4.69
665.395	-32.69
665.427	-25.69
665.459	11.31
665.491	-13.69
665.523	-3.69
665.555	1.31
665.586	7.31
665.618	-14.69
665.65	-24.69
665.682	-3.69
665.714	7.31
665.746	6.31
665.777	-1.69
665.809	-13.69
665.841	-6.69
665.873	-13.69
665.905	5.31
665.937	18.31
665.968	-9.69
666	-4.69
666.032	-8.69
666.064	-2.69
666.096	-2.69
666.127	-10.69
666.159	-1.69
666.191	-11.69
666.223	-0.69
666.255	14.31
666.286	5.31
666.318	-3.69
666.35	13.31
666.382	2.31
666.413	1.31
666.445	-16.69
666.477	-14.69
666.509	-10.69
666.54	0.31
666.572	1.31
666.604	-14.69
666.636	15.31
666.667	11.31
666.699	9.31
666.731	-1.69
666.763	-8.69
666.794	7.31
666.826	7.31
666.858	-27.69
666.89	2.31
666.921	3.31
666.953	2.31
666.985	12.31
667.017	16.31
667.048	-0.69
667.08	-2.69
667.112	-12.69
667.143	-16.69
667.175	10.31
667.207	16.31
667.238	8.31
667.27	-6.69
667.302	-10.69
667.334	-12.69
667.365	24.31
667.397	-0.69
667.429	8.31
667.46	8.31
667.492	-1.69
667.524	-18.69
667.555	2.31
667.587	-4.69
667.619	-9.69
667.65	-19.69
667.682	10.31
667.714	2.31
667.745	11.31
667.777	-16.69
667.808	-5.69
667.84	-1.69
667.872	-7.69
667.903	14.31
667.935	5.31
667.967	-10.69
667.998	-8.69
668.03	-3.69
668.061	0.31
668.093	-14.69
668.125	3.31
668.156	8.31
668.188	-0.69
668.22	-3.69
668.251	21.31
668.283	15.31
668.314	6.31
668.346	-14.69
668.377	-10.69
668.409	-4.69
668.441	23.31
668.472	3.31
668.504	-9.69
668.535	16.31
668.567	20.31
668.599	-7.69
668.63	3.31
668.662	8.31
668.693	25.31
668.725	-4.69
668.756	8.31
668.788	-16.69
668.819	-0.69
668.851	4.31
668.882	4.31
668.914	-11.69
668.946	-8.69
668.977	-8.69
669.009	-14.69
669.04	-7.69
669.072	6.31
669.103	-1.69
669.135	-4.69
669.166	-7.69
669.198	9.31
669.229	4.31
669.261	-10.69
669.292	-17.69
669.324	3.31
669.355	15.31
669.387	-12.69
669.418	-5.69
669.45	-12.69
669.481	11.31
669.513	0.31
669.544	-12.69
669.576	-19.69
669.607	3.31
669.639	0.31
669.67	-18.69
669.701	5.31
669.733	-13.69
669.764	-3.69
669.796	-8.69
669.827	-7.69
669.859	-21.69
669.89	-1.69
669.922	7.31
669.953	14.31
669.985	5.31
670.016	3.31
670.047	9.31
670.079	-0.69
670.11	3.31
670.142	-5.69
670.173	-4.69
670.204	-2.69
670.236	-0.69
670.267	-10.69
670.299	4.31
670.33	4.31
670.362	4.31
670.393	-28.69
670.424	-0.69
670.456	-15.69
670.487	-15.69
670.518	-23.69
670.55	-22.69
670.581	-2.69
670.613	-3.69
670.644	-19.69
670.675	-13.69
670.707	-16.69
670.738	6.31
670.769	-0.69
670.801	-8.69
670.832	4.31
670.864	-3.69
670.895	5.31
670.926	1.31
670.958	-9.69
670.989	-11.69
671.02	-9.69
671.052	2.31
671.083	-7.69
671.114	9.31
671.146	2.31
671.177	6.31
671.208	-10.69
671.24	-20.69
671.271	-5.69
671.302	17.31
671.333	-8.69
671.365	-24.69
671.396	4.31
671.427	5.31
671.459	-8.69
671.49	-0.69
671.521	6.31
671.553	9.31
671.584	15.31
671.615	-10.69
671.646	-3.69
671.678	5.31
671.709	-13.69
671.74	-0.69
671.771	-1.69
671.803	-6.69
671.834	6.31
671.865	-10.69
671.896	3.31
671.928	-16.69
671.959	-26.69
671.99	-18.69
672.021	7.31
672.053	-13.69
672.084	16.31
672.115	7.31
672.146	-13.69
672.178	-17.69
672.209	-14.69
672.24	-1.69
672.271	27.31
672.303	15.31
672.334	2.31
672.365	-11.69
672.396	-12.69
672.427	10.31
672.459	7.31
672.49	36.31
672.521	2.31
672.552	2.31
672.583	12.31
672.615	-0.69
672.646	-1.69
672.677	-10.69
672.708	-9.69
672.739	-13.69
672.77	-10.69
672.802	11.31
672.833	-5.69
672.864	-7.69
672.895	2.31
672.926	2.31
672.957	-14.69
672.989	9.31
673.02	11.31
673.051	-4.69
673.082	22.31
673.113	-5.69
673.144	8.31
673.175	17.31
673.206	2.31
673.238	-0.69
673.269	8.31
673.3	-12.69
673.331	3.31
673.362	9.31
673.393	5.31
673.424	12.31
673.455	20.31
673.487	-0.69
673.518	-0.69
673.549	18.31
673.58	8.31
673.611	-12.69
673.642	-1.69
673.673	-16.69
673.704	-5.69
673.735	-2.69
673.766	10.31
673.797	-6.69
673.828	-2.69
673.86	-2.69
673.891	-5.69
673.922	-4.69
673.953	-2.69
673.984	1.31
674.015	7.31
674.046	-8.69
674.077	-9.69
674.108	1.31
674.139	-3.69
674.17	-10.69
674.201	10.31
674.232	-6.69
674.263	-9.69
674.294	1.31
674.325	3.31
674.356	-0.69
674.387	6.31
674.418	6.31
674.449	2.31
674.48	6.31
674.511	-4.69
674.542	2.31
674.573	-11.69
674.604	14.31
674.635	-4.69
674.666	3.31
674.697	-7.69
674.728	-7.69
674.759	-5.69
674.79	-3.69
674.821	-6.69
674.852	3.31
674.883	-4.69
674.914	-6.69
674.945	-5.69
674.976	6.31
675.007	-5.69
675.038	-12.69
675.069	5.31
675.1	1.31
675.131	-6.69
675.162	-30.69
675.193	-3.69
675.224	-1.69
675.254	-3.69
675.285	3.31
675.316	5.31
675.347	8.31
675.378	-11.69
675.409	-6.69
675.44	13.31
675.471	-1.69
675.502	-16.69
675.533	-11.69
675.564	9.31
675.595	6.31
675.625	14.31
675.656	13.31
675.687	5.31
675.718	-11.69
675.749	9.31
675.78	5.31
675.811	-14.69
675.842	2.31
675.873	-0.69
675.903	1.31
675.934	1.31
675.965	-18.69
675.996	-23.69
676.027	13.31
676.058	-8.69
676.089	-14.69
676.119	5.31
676.15	15.31
676.181	-6.69
676.212	-8.69
676.243	11.31
676.274	-8.69
676.304	15.31
676.335	-6.69
676.366	1.31
676.397	-3.69
676.428	-5.69
676.459	-7.69
676.489	5.31
676.52	-13.69
676.551	-3.69
676.582	-6.69
676.613	-0.69
676.643	4.31
676.674	-1.69
676.705	-1.69
676.736	6.31
676.767	2.31
676.797	7.31
676.828	-13.69
676.859	-9.69
676.89	6.31
676.92	13.31
676.951	16.31
676.982	8.31
677.013	5.31
677.044	9.31
677.074	0.31
677.105	-12.69
677.136	8.31
677.167	10.31
677.197	9.31
677.228	-5.69
677.259	-11.69
677.289	-18.69
677.32	-16.69
677.351	-11.69
677.382	-12.69
677.412	-5.69
677.443	5.31
677.474	3.31
677.505	0.31
677.535	2.31
677.566	9.31
677.597	-2.69
677.627	-10.69
677.658	2.31
677.689	12.31
677.72	6.31
677.75	-4.69
677.781	-5.69
677.812	7.31
677.842	5.31
677.873	-10.69
677.904	-0.69
677.934	-6.69
677.965	-6.69
677.996	-11.69
678.026	5.31
678.057	2.31
678.088	-20.69
678.118	-7.69
678.149	-5.69
678.18	-5.69
678.21	11.31
678.241	6.31
678.272	-3.69
678.302	-8.69
678.333	-5.69
678.363	6.31
678.394	-1.69
678.425	-10.69
678.455	4.31
678.486	4.31
678.517	11.31
678.547	4.31
678.578	-3.69
678.608	-18.69
678.639	11.31
678.67	5.31
678.7	0.31
678.731	-11.69
678.761	-6.69
678.792	6.31
678.823	5.31
678.853	18.31
678.884	-13.69
678.914	8.31
678.945	-3.69
678.975	-18.69
679.006	8.31
679.037	-13.69
679.067	7.31
679.098	-15.69
679.128	-6.69
679.159	-22.69
679.189	-7.69
679.22	-21.69
679.25	-4.69
679.281	-9.69
679.312	-8.69
679.342	-1.69
679.373	24.31
679.403	13.31
679.434	10.31
679.464	-4.69
679.495	5.31
679.525	4.31
679.556	-8.69
679.586	14.31
679.617	10.31
679.647	5.31
679.678	-3.69
679.708	-21.69
679.739	-7.69
679.769	-10.69
679.8	-18.69
679.83	3.31
679.861	-13.69
679.891	-27.69
679.922	-24.69
679.952	2.31
679.983	11.31
680.013	5.31
680.044	1.31
680.074	11.31
680.105	1.31
680.135	-4.69
680.165	5.31
680.196	14.31
680.226	8.31
680.257	4.31
680.287	7.31
680.318	-2.69
680.348	-8.69
680.379	18.31
680.409	9.31
680.439	-9.69
680.47	-10.69
680.5	-8.69
680.531	-7.69
680.561	13.31
680.592	4.31
680.622	11.31
680.652	-2.69
680.683	7.31
680.713	-5.69
680.744	2.31
680.774	-9.69
680.804	23.31
680.835	10.31
680.865	-13.69
680.896	15.31
680.926	23.31
680.956	-5.69
680.987	-9.69
681.017	-14.69
681.047	-0.69
681.078	-8.69
681.108	-8.69
681.139	-7.69
681.169	-10.69
681.199	4.31
681.23	9.31
681.26	0.31
681.29	14.31
681.321	2.31
681.351	6.31
681.381	-10.69
681.412	-5.69
681.442	-1.69
681.472	14.31
681.503	-3.69
681.533	-7.69
681.563	4.31
681.594	-1.69
681.624	2.31
681.654	-6.69
681.685	7.31
681.715	17.31
681.745	0.31
681.775	1.31
681.806	-6.69
681.836	-6.69
681.866	-22.69
681.897	-10.69
681.927	-2.69
681.957	-4.69
681.987	-3.69
682.018	-5.69
682.048	7.31
682.078	2.31
682.109	18.31
682.139	16.31
682.169	9.31
682.199	-5.69
682.23	-4.69
682.26	-4.69
682.29	-14.69
682.32	-2.69
