Data from HighRes_H2D2_15_04_11_07_2024_HR4C61891__17__15-05-36-143.txt Node

Date: Thu Nov 07 15:05:36 EST 2024
User: crc00042
Spectrometer: HR4C6189
Trigger mode: 4
Integration Time (sec): 1.000000E-1
Scans to average: 1
Electric dark correction enabled: true
Nonlinearity correction enabled: false
Boxcar width: 0
XAxis mode: Wavelengths
Number of Pixels in Spectrum: 3648
>>>>>Begin Spectral Data<<<<<
639.567	-77.92
639.602	-77.92
639.636	-77.92
639.67	-39.92
639.704	-30.92
639.738	-5.92
639.773	13.08
639.807	3.08
639.841	0.08
639.875	5.08
639.909	-8.92
639.943	-4.92
639.978	-18.92
640.012	2.08
640.046	19.08
640.08	9.08
640.114	3.08
640.148	-15.92
640.182	-7.92
640.217	-9.92
640.251	13.08
640.285	7.08
640.319	-13.92
640.353	5.08
640.387	-2.92
640.421	-4.92
640.455	-4.92
640.49	-21.92
640.524	-7.92
640.558	10.08
640.592	-4.92
640.626	7.08
640.66	-16.92
640.694	-1.92
640.728	7.08
640.762	5.08
640.796	1.08
640.83	16.08
640.865	-7.92
640.899	-15.92
640.933	-0.92
640.967	0.08
641.001	-4.92
641.035	-0.92
641.069	5.08
641.103	-4.92
641.137	-4.92
641.171	-20.92
641.205	0.08
641.239	-9.92
641.273	14.08
641.307	-5.92
641.341	-6.92
641.375	3.08
641.409	-10.92
641.443	1.08
641.477	5.08
641.511	5.08
641.545	18.08
641.579	-2.92
641.614	13.08
641.648	4.08
641.682	-5.92
641.716	-7.92
641.75	6.08
641.784	-5.92
641.818	-17.92
641.852	5.08
641.886	-3.92
641.919	14.08
641.953	5.08
641.987	-4.92
642.021	-19.92
642.055	9.08
642.089	3.08
642.123	-12.92
642.157	-16.92
642.191	-12.92
642.225	10.08
642.259	-21.92
642.293	11.08
642.327	-0.92
642.361	-10.92
642.395	7.08
642.429	12.08
642.463	7.08
642.497	13.08
642.531	5.08
642.565	0.08
642.599	0.08
642.633	-11.92
642.666	0.08
642.7	11.08
642.734	20.08
642.768	-2.92
642.802	-7.92
642.836	2.08
642.87	3.08
642.904	-1.92
642.938	-4.92
642.972	1.08
643.005	5.08
643.039	13.08
643.073	-4.92
643.107	-3.92
643.141	13.08
643.175	-0.92
643.209	-8.92
643.243	6.08
643.276	13.08
643.31	-6.92
643.344	-7.92
643.378	7.08
643.412	18.08
643.446	-3.92
643.48	-5.92
643.513	-3.92
643.547	-1.92
643.581	-0.92
643.615	8.08
643.649	8.08
643.683	-0.92
643.716	-11.92
643.75	5.08
643.784	-11.92
643.818	7.08
643.852	2.08
643.886	2.08
643.919	16.08
643.953	-0.92
643.987	-9.92
644.021	7.08
644.055	9.08
644.088	-2.92
644.122	-19.92
644.156	-16.92
644.19	4.08
644.224	-9.92
644.257	-1.92
644.291	7.08
644.325	2.08
644.359	-1.92
644.392	26.08
644.426	6.08
644.46	-17.92
644.494	-6.92
644.527	7.08
644.561	-1.92
644.595	4.08
644.629	-11.92
644.662	4.08
644.696	4.08
644.73	0.08
644.764	10.08
644.797	10.08
644.831	-15.92
644.865	0.08
644.899	-8.92
644.932	25.08
644.966	5.08
645	-4.92
645.033	-0.92
645.067	-2.92
645.101	4.08
645.135	16.08
645.168	-9.92
645.202	-4.92
645.236	10.08
645.269	20.08
645.303	9.08
645.337	-13.92
645.37	0.08
645.404	-6.92
645.438	-5.92
645.471	6.08
645.505	5.08
645.539	-7.92
645.572	-3.92
645.606	-15.92
645.64	-0.92
645.673	2.08
645.707	14.08
645.741	15.08
645.774	5.08
645.808	13.08
645.842	1.08
645.875	4.08
645.909	-3.92
645.943	-17.92
645.976	-7.92
646.01	0.08
646.043	11.08
646.077	11.08
646.111	-0.92
646.144	11.08
646.178	11.08
646.212	-10.92
646.245	2.08
646.279	2.08
646.312	-4.92
646.346	12.08
646.38	6.08
646.413	17.08
646.447	-0.92
646.48	12.08
646.514	-1.92
646.547	-6.92
646.581	0.08
646.615	-3.92
646.648	-4.92
646.682	-1.92
646.715	-2.92
646.749	-1.92
646.782	2.08
646.816	0.08
646.85	-2.92
646.883	-20.92
646.917	0.08
646.95	3.08
646.984	3.08
647.017	11.08
647.051	15.08
647.084	6.08
647.118	-8.92
647.151	6.08
647.185	5.08
647.218	-11.92
647.252	6.08
647.285	-8.92
647.319	-8.92
647.353	-6.92
647.386	16.08
647.42	22.08
647.453	5.08
647.487	10.08
647.52	-3.92
647.553	11.08
647.587	7.08
647.62	-3.92
647.654	5.08
647.687	3.08
647.721	-2.92
647.754	1.08
647.788	4.08
647.821	-13.92
647.855	-2.92
647.888	11.08
647.922	7.08
647.955	-3.92
647.989	-6.92
648.022	-7.92
648.055	4.08
648.089	-9.92
648.122	11.08
648.156	-1.92
648.189	2.08
648.223	11.08
648.256	15.08
648.29	12.08
648.323	-16.92
648.356	9.08
648.39	7.08
648.423	8.08
648.457	3.08
648.49	11.08
648.523	-2.92
648.557	7.08
648.59	-9.92
648.624	-6.92
648.657	7.08
648.69	21.08
648.724	18.08
648.757	15.08
648.791	-4.92
648.824	7.08
648.857	18.08
648.891	8.08
648.924	1.08
648.957	10.08
648.991	-2.92
649.024	11.08
649.057	-18.92
649.091	-21.92
649.124	14.08
649.158	7.08
649.191	5.08
649.224	2.08
649.258	11.08
649.291	18.08
649.324	5.08
649.358	7.08
649.391	-0.92
649.424	7.08
649.458	-8.92
649.491	-7.92
649.524	-13.92
649.557	-3.92
649.591	-6.92
649.624	22.08
649.657	-0.92
649.691	-9.92
649.724	8.08
649.757	-0.92
649.791	-9.92
649.824	19.08
649.857	-0.92
649.89	1.08
649.924	-8.92
649.957	13.08
649.99	7.08
650.023	-6.92
650.057	-16.92
650.09	-8.92
650.123	-10.92
650.157	8.08
650.19	13.08
650.223	7.08
650.256	2.08
650.29	-7.92
650.323	5.08
650.356	-3.92
650.389	0.08
650.423	0.08
650.456	5.08
650.489	2.08
650.522	4.08
650.555	14.08
650.589	14.08
650.622	-3.92
650.655	-1.92
650.688	9.08
650.721	6.08
650.755	8.08
650.788	20.08
650.821	4.08
650.854	11.08
650.887	8.08
650.921	-3.92
650.954	-5.92
650.987	10.08
651.02	-3.92
651.053	-16.92
651.087	-3.92
651.12	21.08
651.153	1.08
651.186	4.08
651.219	-1.92
651.252	21.08
651.286	14.08
651.319	-11.92
651.352	1.08
651.385	9.08
651.418	2.08
651.451	9.08
651.484	15.08
651.518	-5.92
651.551	3.08
651.584	-7.92
651.617	9.08
651.65	1.08
651.683	10.08
651.716	-13.92
651.749	-10.92
651.783	-12.92
651.816	13.08
651.849	27.08
651.882	1.08
651.915	1.08
651.948	13.08
651.981	-3.92
652.014	-25.92
652.047	-5.92
652.08	-16.92
652.114	-10.92
652.147	-6.92
652.18	15.08
652.213	18.08
652.246	4.08
652.279	-14.92
652.312	-1.92
652.345	-1.92
652.378	1.08
652.411	17.08
652.444	9.08
652.477	-8.92
652.51	-11.92
652.543	-16.92
652.576	10.08
652.609	11.08
652.642	11.08
652.675	-2.92
652.709	-21.92
652.742	-5.92
652.775	-6.92
652.808	8.08
652.841	-6.92
652.874	-13.92
652.907	12.08
652.94	-11.92
652.973	-2.92
653.006	-7.92
653.039	6.08
653.072	7.08
653.105	-6.92
653.138	-15.92
653.171	-12.92
653.204	-5.92
653.237	11.08
653.27	-5.92
653.303	2.08
653.336	13.08
653.368	-9.92
653.401	7.08
653.434	3.08
653.467	14.08
653.5	-8.92
653.533	-11.92
653.566	-5.92
653.599	5.08
653.632	1.08
653.665	1.08
653.698	-12.92
653.731	-1.92
653.764	-0.92
653.797	8.08
653.83	9.08
653.863	8.08
653.896	-4.92
653.929	-19.92
653.961	7.08
653.994	-1.92
654.027	-17.92
654.06	-1.92
654.093	-11.92
654.126	4.08
654.159	7.08
654.192	-4.92
654.225	-28.92
654.258	-6.92
654.29	-2.92
654.323	1.08
654.356	6.08
654.389	4.08
654.422	-7.92
654.455	3.08
654.488	-1.92
654.521	-8.92
654.553	-0.92
654.586	-13.92
654.619	-2.92
654.652	4.08
654.685	7.08
654.718	5.08
654.751	-0.92
654.783	-6.92
654.816	2.08
654.849	2.08
654.882	-10.92
654.915	-36.92
654.948	-0.92
654.98	-2.92
655.013	-0.92
655.046	0.08
655.079	-5.92
655.112	11.08
655.144	-6.92
655.177	-4.92
655.21	14.08
655.243	16.08
655.276	4.08
655.308	-8.92
655.341	-1.92
655.374	-10.92
655.407	-14.92
655.44	4.08
655.472	13.08
655.505	3.08
655.538	5.08
655.571	5.08
655.603	-5.92
655.636	5.08
655.669	14.08
655.702	8.08
655.734	-14.92
655.767	9.08
655.8	18.08
655.833	11.08
655.865	6.08
655.898	4.08
655.931	-2.92
655.964	5.08
655.996	26.08
656.029	19.08
656.062	31.08
656.095	47.08
656.127	74.08
656.16	202.08
656.193	643.08
656.225	994.08
656.258	530.08
656.291	222.08
656.324	175.08
656.356	346.08
656.389	782.08
656.422	698.08
656.454	235.08
656.487	73.08
656.52	36.08
656.552	13.08
656.585	11.08
656.618	-0.92
656.65	8.08
656.683	-1.92
656.716	7.08
656.748	0.08
656.781	-6.92
656.814	0.08
656.846	7.08
656.879	3.08
656.912	-6.92
656.944	-9.92
656.977	1.08
657.01	-1.92
657.042	-3.92
657.075	-0.92
657.108	-12.92
657.14	16.08
657.173	16.08
657.205	23.08
657.238	11.08
657.271	5.08
657.303	-4.92
657.336	-3.92
657.369	3.08
657.401	10.08
657.434	0.08
657.466	16.08
657.499	5.08
657.532	8.08
657.564	0.08
657.597	6.08
657.629	-5.92
657.662	-0.92
657.694	-4.92
657.727	-18.92
657.76	-3.92
657.792	2.08
657.825	-6.92
657.857	-8.92
657.89	-9.92
657.922	16.08
657.955	-16.92
657.987	-2.92
658.02	8.08
658.053	3.08
658.085	-9.92
658.118	7.08
658.15	17.08
658.183	18.08
658.215	5.08
658.248	-5.92
658.28	1.08
658.313	27.08
658.345	9.08
658.378	-8.92
658.41	-5.92
658.443	5.08
658.475	0.08
658.508	4.08
658.54	9.08
658.573	-15.92
658.605	3.08
658.638	1.08
658.67	-5.92
658.703	-4.92
658.735	-11.92
658.768	10.08
658.8	-4.92
658.833	11.08
658.865	8.08
658.898	-10.92
658.93	-4.92
658.963	-0.92
658.995	-8.92
659.028	-3.92
659.06	-12.92
659.092	-16.92
659.125	-1.92
659.157	-0.92
659.19	-6.92
659.222	3.08
659.255	-1.92
659.287	8.08
659.32	-7.92
659.352	7.08
659.384	16.08
659.417	-4.92
659.449	26.08
659.482	10.08
659.514	1.08
659.546	-0.92
659.579	-1.92
659.611	-3.92
659.644	-22.92
659.676	-23.92
659.708	-20.92
659.741	-2.92
659.773	12.08
659.806	4.08
659.838	-9.92
659.87	-7.92
659.903	-3.92
659.935	7.08
659.967	1.08
660	3.08
660.032	-19.92
660.065	-5.92
660.097	6.08
660.129	-1.92
660.162	-8.92
660.194	-0.92
660.226	2.08
660.259	4.08
660.291	2.08
660.323	8.08
660.356	-8.92
660.388	-10.92
660.42	-11.92
660.453	7.08
660.485	-0.92
660.517	9.08
660.55	18.08
660.582	10.08
660.614	10.08
660.647	0.08
660.679	-2.92
660.711	10.08
660.743	-6.92
660.776	-8.92
660.808	-10.92
660.84	-15.92
660.873	-2.92
660.905	3.08
660.937	-0.92
660.969	-12.92
661.002	-8.92
661.034	8.08
661.066	-9.92
661.099	-1.92
661.131	23.08
661.163	-7.92
661.195	14.08
661.228	11.08
661.26	-8.92
661.292	-1.92
661.324	-0.92
661.357	2.08
661.389	-4.92
661.421	12.08
661.453	-1.92
661.485	3.08
661.518	3.08
661.55	-10.92
661.582	0.08
661.614	-2.92
661.647	11.08
661.679	4.08
661.711	10.08
661.743	-11.92
661.775	-15.92
661.808	18.08
661.84	-14.92
661.872	0.08
661.904	-6.92
661.936	-3.92
661.969	-1.92
662.001	-1.92
662.033	-8.92
662.065	6.08
662.097	3.08
662.129	-1.92
662.162	-11.92
662.194	2.08
662.226	-10.92
662.258	14.08
662.29	3.08
662.322	-7.92
662.355	-26.92
662.387	18.08
662.419	-1.92
662.451	7.08
662.483	9.08
662.515	-7.92
662.547	-7.92
662.58	-4.92
662.612	-3.92
662.644	-18.92
662.676	8.08
662.708	22.08
662.74	6.08
662.772	10.08
662.804	3.08
662.836	8.08
662.869	-21.92
662.901	7.08
662.933	4.08
662.965	8.08
662.997	0.08
663.029	-12.92
663.061	-0.92
663.093	-6.92
663.125	-2.92
663.157	-12.92
663.189	-14.92
663.221	-6.92
663.254	6.08
663.286	1.08
663.318	-4.92
663.35	-17.92
663.382	-17.92
663.414	6.08
663.446	4.08
663.478	-13.92
663.51	31.08
663.542	-19.92
663.574	-4.92
663.606	-9.92
663.638	-16.92
663.67	3.08
663.702	-6.92
663.734	-3.92
663.766	5.08
663.798	-9.92
663.83	3.08
663.862	8.08
663.894	11.08
663.926	-3.92
663.958	2.08
663.99	3.08
664.022	-18.92
664.054	1.08
664.086	-35.92
664.118	-9.92
664.15	-11.92
664.182	-1.92
664.214	-7.92
664.246	22.08
664.278	5.08
664.31	8.08
664.342	-5.92
664.374	-8.92
664.406	0.08
664.438	8.08
664.47	-1.92
664.502	-17.92
664.534	-12.92
664.566	-23.92
664.598	17.08
664.63	-15.92
664.662	-2.92
664.693	5.08
664.725	-12.92
664.757	-8.92
664.789	11.08
664.821	2.08
664.853	-1.92
664.885	4.08
664.917	-4.92
664.949	5.08
664.981	8.08
665.013	-16.92
665.045	-2.92
665.076	9.08
665.108	0.08
665.14	-1.92
665.172	-5.92
665.204	-3.92
665.236	-13.92
665.268	8.08
665.3	1.08
665.331	-4.92
665.363	-0.92
665.395	-14.92
665.427	-7.92
665.459	4.08
665.491	-3.92
665.523	11.08
665.555	9.08
665.586	9.08
665.618	-7.92
665.65	-12.92
665.682	13.08
665.714	2.08
665.746	-13.92
665.777	-8.92
665.809	-1.92
665.841	6.08
665.873	-3.92
665.905	1.08
665.937	13.08
665.968	2.08
666	0.08
666.032	7.08
666.064	-10.92
666.096	-20.92
666.127	9.08
666.159	18.08
666.191	3.08
666.223	-7.92
666.255	4.08
666.286	-0.92
666.318	-25.92
666.35	7.08
666.382	-10.92
666.413	-24.92
666.445	-2.92
666.477	-4.92
666.509	-20.92
666.54	-12.92
666.572	4.08
666.604	0.08
666.636	-7.92
666.667	-1.92
666.699	9.08
666.731	5.08
666.763	-3.92
666.794	4.08
666.826	6.08
666.858	-2.92
666.89	22.08
666.921	6.08
666.953	17.08
666.985	10.08
667.017	13.08
667.048	-15.92
667.08	8.08
667.112	-16.92
667.143	-18.92
667.175	8.08
667.207	-3.92
667.238	8.08
667.27	-15.92
667.302	-7.92
667.334	-2.92
667.365	19.08
667.397	-4.92
667.429	-7.92
667.46	7.08
667.492	11.08
667.524	-1.92
667.555	-7.92
667.587	4.08
667.619	3.08
667.65	6.08
667.682	16.08
667.714	2.08
667.745	12.08
667.777	1.08
667.808	9.08
667.84	0.08
667.872	-1.92
667.903	10.08
667.935	-14.92
667.967	-2.92
667.998	11.08
668.03	-13.92
668.061	0.08
668.093	-11.92
668.125	-9.92
668.156	-3.92
668.188	-6.92
668.22	-6.92
668.251	-13.92
668.283	5.08
668.314	8.08
668.346	-6.92
668.377	12.08
668.409	-1.92
668.441	10.08
668.472	14.08
668.504	24.08
668.535	11.08
668.567	-1.92
668.599	9.08
668.63	10.08
668.662	10.08
668.693	15.08
668.725	0.08
668.756	-2.92
668.788	-4.92
668.819	-4.92
668.851	9.08
668.882	-7.92
668.914	-9.92
668.946	5.08
668.977	-1.92
669.009	-2.92
669.04	-8.92
669.072	-0.92
669.103	11.08
669.135	1.08
669.166	8.08
669.198	-0.92
669.229	-0.92
669.261	-5.92
669.292	0.08
669.324	-2.92
669.355	5.08
669.387	0.08
669.418	11.08
669.45	-17.92
669.481	10.08
669.513	-1.92
669.544	-3.92
669.576	8.08
669.607	30.08
669.639	13.08
669.67	-20.92
669.701	-0.92
669.733	-4.92
669.764	-3.92
669.796	-4.92
669.827	2.08
669.859	-21.92
669.89	11.08
669.922	14.08
669.953	2.08
669.985	5.08
670.016	23.08
670.047	-2.92
670.079	-11.92
670.11	-3.92
670.142	1.08
670.173	7.08
670.204	-9.92
670.236	8.08
670.267	-6.92
670.299	-10.92
670.33	3.08
670.362	3.08
670.393	-1.92
670.424	3.08
670.456	-5.92
670.487	-13.92
670.518	3.08
670.55	-0.92
670.581	-5.92
670.613	-11.92
670.644	1.08
670.675	-13.92
670.707	-7.92
670.738	-17.92
670.769	-10.92
670.801	-4.92
670.832	3.08
670.864	-12.92
670.895	13.08
670.926	7.08
670.958	-2.92
670.989	14.08
671.02	-2.92
671.052	-9.92
671.083	-1.92
671.114	-13.92
671.146	10.08
671.177	1.08
671.208	-0.92
671.24	-12.92
671.271	-27.92
671.302	-6.92
671.333	6.08
671.365	-1.92
671.396	-23.92
671.427	3.08
671.459	-5.92
671.49	7.08
671.521	6.08
671.553	6.08
671.584	-3.92
671.615	-5.92
671.646	-0.92
671.678	5.08
671.709	1.08
671.74	-20.92
671.771	-8.92
671.803	-19.92
671.834	0.08
671.865	-1.92
671.896	1.08
671.928	3.08
671.959	5.08
671.99	-17.92
672.021	-8.92
672.053	-11.92
672.084	11.08
672.115	-7.92
672.146	-5.92
672.178	-15.92
672.209	-12.92
672.24	0.08
672.271	10.08
672.303	1.08
672.334	-8.92
672.365	-1.92
672.396	8.08
672.427	4.08
672.459	5.08
672.49	19.08
672.521	9.08
672.552	19.08
672.583	7.08
672.615	5.08
672.646	7.08
672.677	0.08
672.708	15.08
672.739	-7.92
672.77	17.08
672.802	-8.92
672.833	2.08
672.864	-19.92
672.895	-5.92
672.926	-10.92
672.957	-28.92
672.989	-16.92
673.02	2.08
673.051	-9.92
673.082	20.08
673.113	1.08
673.144	0.08
673.175	-2.92
673.206	-18.92
673.238	-1.92
673.269	1.08
673.3	0.08
673.331	-16.92
673.362	5.08
673.393	-5.92
673.424	9.08
673.455	30.08
673.487	3.08
673.518	12.08
673.549	18.08
673.58	-6.92
673.611	4.08
673.642	0.08
673.673	-27.92
673.704	-0.92
673.735	-4.92
673.766	-0.92
673.797	-3.92
673.828	-0.92
673.86	-13.92
673.891	-17.92
673.922	-3.92
673.953	2.08
673.984	2.08
674.015	5.08
674.046	-5.92
674.077	-9.92
674.108	-10.92
674.139	-10.92
674.17	-4.92
674.201	-3.92
674.232	-20.92
674.263	-3.92
674.294	-9.92
674.325	-15.92
674.356	7.08
674.387	16.08
674.418	5.08
674.449	-16.92
674.48	-6.92
674.511	14.08
674.542	2.08
674.573	-20.92
674.604	7.08
674.635	-17.92
674.666	-2.92
674.697	3.08
674.728	-4.92
674.759	-8.92
674.79	-12.92
674.821	-9.92
674.852	-2.92
674.883	-18.92
674.914	0.08
674.945	-0.92
674.976	5.08
675.007	-13.92
675.038	0.08
675.069	-6.92
675.1	-29.92
675.131	1.08
675.162	-11.92
675.193	-14.92
675.224	2.08
675.254	2.08
675.285	10.08
675.316	20.08
675.347	9.08
675.378	-9.92
675.409	-15.92
675.44	-0.92
675.471	7.08
675.502	-15.92
675.533	1.08
675.564	-0.92
675.595	-4.92
675.625	12.08
675.656	13.08
675.687	3.08
675.718	-26.92
675.749	-1.92
675.78	2.08
675.811	4.08
675.842	4.08
675.873	12.08
675.903	-0.92
675.934	-10.92
675.965	-11.92
675.996	10.08
676.027	9.08
676.058	-0.92
676.089	-17.92
676.119	11.08
676.15	3.08
676.181	4.08
676.212	-7.92
676.243	-1.92
676.274	-7.92
676.304	-0.92
676.335	-2.92
676.366	-8.92
676.397	-1.92
676.428	5.08
676.459	-4.92
676.489	15.08
676.52	4.08
676.551	8.08
676.582	-6.92
676.613	0.08
676.643	-12.92
676.674	16.08
676.705	5.08
676.736	7.08
676.767	21.08
676.797	8.08
676.828	18.08
676.859	3.08
676.89	-2.92
676.92	1.08
676.951	12.08
676.982	18.08
677.013	4.08
677.044	20.08
677.074	-8.92
677.105	-20.92
677.136	9.08
677.167	2.08
677.197	19.08
677.228	-11.92
677.259	-13.92
677.289	8.08
677.32	-13.92
677.351	-11.92
677.382	-4.92
677.412	-5.92
677.443	-2.92
677.474	0.08
677.505	-2.92
677.535	-8.92
677.566	-8.92
677.597	-8.92
677.627	-16.92
677.658	-16.92
677.689	-3.92
677.72	-20.92
677.75	-4.92
677.781	-11.92
677.812	4.08
677.842	3.08
677.873	-7.92
677.904	0.08
677.934	3.08
677.965	-2.92
677.996	-24.92
678.026	-19.92
678.057	2.08
678.088	-9.92
678.118	6.08
678.149	-8.92
678.18	-10.92
678.21	6.08
678.241	7.08
678.272	-20.92
678.302	12.08
678.333	2.08
678.363	-0.92
678.394	-0.92
678.425	-11.92
678.455	8.08
678.486	14.08
678.517	-11.92
678.547	-0.92
678.578	6.08
678.608	-11.92
678.639	10.08
678.67	1.08
678.7	-2.92
678.731	3.08
678.761	-0.92
678.792	15.08
678.823	0.08
678.853	2.08
678.884	-5.92
678.914	16.08
678.945	-2.92
678.975	1.08
679.006	7.08
679.037	-6.92
679.067	10.08
679.098	-6.92
679.128	-17.92
679.159	-15.92
679.189	13.08
679.22	0.08
679.25	-1.92
679.281	-10.92
679.312	2.08
679.342	-7.92
679.373	3.08
679.403	-2.92
679.434	-7.92
679.464	-1.92
679.495	8.08
679.525	14.08
679.556	3.08
679.586	0.08
679.617	-8.92
679.647	-3.92
679.678	4.08
679.708	-4.92
679.739	-6.92
679.769	1.08
679.8	1.08
679.83	-13.92
679.861	18.08
679.891	9.08
679.922	-0.92
679.952	11.08
679.983	12.08
680.013	4.08
680.044	-4.92
680.074	18.08
680.105	21.08
680.135	6.08
680.165	12.08
680.196	6.08
680.226	6.08
680.257	-4.92
680.287	8.08
680.318	6.08
680.348	5.08
680.379	2.08
680.409	-1.92
680.439	-1.92
680.47	0.08
680.5	-8.92
680.531	4.08
680.561	11.08
680.592	2.08
680.622	15.08
680.652	-4.92
680.683	8.08
680.713	3.08
680.744	2.08
680.774	-17.92
680.804	21.08
680.835	-9.92
680.865	-15.92
680.896	21.08
680.926	18.08
680.956	3.08
680.987	6.08
681.017	12.08
681.047	7.08
681.078	-3.92
681.108	14.08
681.139	2.08
681.169	3.08
681.199	-13.92
681.23	-5.92
681.26	-3.92
681.29	6.08
681.321	-16.92
681.351	0.08
681.381	-0.92
681.412	2.08
681.442	4.08
681.472	19.08
681.503	21.08
681.533	5.08
681.563	-4.92
681.594	-3.92
681.624	2.08
681.654	-8.92
681.685	-6.92
681.715	-5.92
681.745	-2.92
681.775	-9.92
681.806	1.08
681.836	-2.92
681.866	0.08
681.897	9.08
681.927	-5.92
681.957	-4.92
681.987	-0.92
682.018	9.08
682.048	-7.92
682.078	-3.92
682.109	-3.92
682.139	-1.92
682.169	-0.92
682.199	-0.92
682.23	-20.92
682.26	-8.92
682.29	-1.92
682.32	-2.92
682.351	4.08
682.381	11.08
682.411	-1.92
682.441	0.08
