Data from HighRes_H2D2_15_04_11_07_2024_HR4C61891__39__15-05-38-343.txt Node

Date: Thu Nov 07 15:05:38 EST 2024
User: crc00042
Spectrometer: HR4C6189
Trigger mode: 4
Integration Time (sec): 1.000000E-1
Scans to average: 1
Electric dark correction enabled: true
Nonlinearity correction enabled: false
Boxcar width: 0
XAxis mode: Wavelengths
Number of Pixels in Spectrum: 3648
>>>>>Begin Spectral Data<<<<<
639.567	-77.38
639.602	-77.38
639.636	-77.38
639.67	-63.38
639.704	-33.38
639.738	-13.38
639.773	-0.38
639.807	-17.38
639.841	-1.38
639.875	19.62
639.909	3.62
639.943	-18.38
639.978	-5.38
640.012	6.62
640.046	0.62
640.08	11.62
640.114	8.62
640.148	5.62
640.182	-3.38
640.217	-7.38
640.251	12.62
640.285	10.62
640.319	-1.38
640.353	7.62
640.387	4.62
640.421	7.62
640.455	-3.38
640.49	-10.38
640.524	-7.38
640.558	-9.38
640.592	1.62
640.626	8.62
640.66	11.62
640.694	-6.38
640.728	4.62
640.762	13.62
640.796	20.62
640.83	12.62
640.865	1.62
640.899	-0.38
640.933	2.62
640.967	3.62
641.001	10.62
641.035	3.62
641.069	-5.38
641.103	-7.38
641.137	-20.38
641.171	-23.38
641.205	-6.38
641.239	-1.38
641.273	23.62
641.307	-1.38
641.341	-5.38
641.375	-1.38
641.409	-0.38
641.443	1.62
641.477	8.62
641.511	3.62
641.545	6.62
641.579	-7.38
641.614	-9.38
641.648	3.62
641.682	-7.38
641.716	12.62
641.75	13.62
641.784	2.62
641.818	-11.38
641.852	-7.38
641.886	-5.38
641.919	21.62
641.953	-3.38
641.987	-8.38
642.021	4.62
642.055	2.62
642.089	-6.38
642.123	-24.38
642.157	0.62
642.191	-7.38
642.225	1.62
642.259	-2.38
642.293	-1.38
642.327	0.62
642.361	-0.38
642.395	19.62
642.429	16.62
642.463	2.62
642.497	11.62
642.531	1.62
642.565	-11.38
642.599	18.62
642.633	-10.38
642.666	-7.38
642.7	-3.38
642.734	6.62
642.768	-27.38
642.802	-3.38
642.836	3.62
642.87	-11.38
642.904	-5.38
642.938	11.62
642.972	-6.38
643.005	8.62
643.039	10.62
643.073	3.62
643.107	-0.38
643.141	-4.38
643.175	15.62
643.209	-9.38
643.243	-4.38
643.276	3.62
643.31	-7.38
643.344	-17.38
643.378	-9.38
643.412	4.62
643.446	12.62
643.48	-3.38
643.513	6.62
643.547	3.62
643.581	-7.38
643.615	7.62
643.649	-10.38
643.683	-0.38
643.716	4.62
643.75	-2.38
643.784	-2.38
643.818	5.62
643.852	-6.38
643.886	-11.38
643.919	-4.38
643.953	8.62
643.987	-2.38
644.021	26.62
644.055	0.62
644.088	-11.38
644.122	-15.38
644.156	15.62
644.19	17.62
644.224	2.62
644.257	-15.38
644.291	-5.38
644.325	-9.38
644.359	-4.38
644.392	31.62
644.426	10.62
644.46	-1.38
644.494	-7.38
644.527	-21.38
644.561	-15.38
644.595	-15.38
644.629	-13.38
644.662	1.62
644.696	17.62
644.73	-3.38
644.764	0.62
644.797	-10.38
644.831	12.62
644.865	9.62
644.899	-8.38
644.932	-2.38
644.966	2.62
645	7.62
645.033	1.62
645.067	-11.38
645.101	-2.38
645.135	6.62
645.168	-5.38
645.202	-18.38
645.236	-11.38
645.269	30.62
645.303	14.62
645.337	-8.38
645.37	-23.38
645.404	-8.38
645.438	3.62
645.471	-7.38
645.505	-5.38
645.539	-7.38
645.572	-12.38
645.606	-12.38
645.64	-5.38
645.673	-8.38
645.707	20.62
645.741	-1.38
645.774	-1.38
645.808	-0.38
645.842	-1.38
645.875	14.62
645.909	-1.38
645.943	-4.38
645.976	-4.38
646.01	2.62
646.043	-9.38
646.077	9.62
646.111	7.62
646.144	-5.38
646.178	2.62
646.212	-14.38
646.245	-8.38
646.279	10.62
646.312	5.62
646.346	9.62
646.38	-5.38
646.413	-15.38
646.447	-20.38
646.48	-11.38
646.514	11.62
646.547	-16.38
646.581	2.62
646.615	-19.38
646.648	-18.38
646.682	-2.38
646.715	3.62
646.749	5.62
646.782	-2.38
646.816	-0.38
646.85	-8.38
646.883	-15.38
646.917	15.62
646.95	13.62
646.984	8.62
647.017	-12.38
647.051	1.62
647.084	-11.38
647.118	-6.38
647.151	2.62
647.185	5.62
647.218	-13.38
647.252	4.62
647.285	-15.38
647.319	-9.38
647.353	15.62
647.386	15.62
647.42	-1.38
647.453	-0.38
647.487	5.62
647.52	-6.38
647.553	-4.38
647.587	-10.38
647.62	2.62
647.654	-0.38
647.687	-2.38
647.721	10.62
647.754	-0.38
647.788	13.62
647.821	-2.38
647.855	3.62
647.888	7.62
647.922	6.62
647.955	12.62
647.989	5.62
648.022	14.62
648.055	14.62
648.089	-4.38
648.122	16.62
648.156	-16.38
648.189	19.62
648.223	7.62
648.256	14.62
648.29	8.62
648.323	-1.38
648.356	15.62
648.39	-1.38
648.423	-0.38
648.457	-0.38
648.49	-8.38
648.523	8.62
648.557	6.62
648.59	-4.38
648.624	14.62
648.657	-2.38
648.69	10.62
648.724	-8.38
648.757	8.62
648.791	9.62
648.824	12.62
648.857	7.62
648.891	-3.38
648.924	-0.38
648.957	14.62
648.991	-19.38
649.024	17.62
649.057	4.62
649.091	9.62
649.124	7.62
649.158	10.62
649.191	20.62
649.224	-1.38
649.258	14.62
649.291	-9.38
649.324	9.62
649.358	6.62
649.391	13.62
649.424	6.62
649.458	-9.38
649.491	0.62
649.524	-12.38
649.557	-4.38
649.591	-9.38
649.624	7.62
649.657	-5.38
649.691	5.62
649.724	-18.38
649.757	-2.38
649.791	-12.38
649.824	14.62
649.857	14.62
649.89	-10.38
649.924	-4.38
649.957	1.62
649.99	-21.38
650.023	-2.38
650.057	9.62
650.09	-0.38
650.123	19.62
650.157	11.62
650.19	26.62
650.223	5.62
650.256	-10.38
650.29	7.62
650.323	11.62
650.356	19.62
650.389	2.62
650.423	-6.38
650.456	-1.38
650.489	-2.38
650.522	8.62
650.555	13.62
650.589	11.62
650.622	2.62
650.655	3.62
650.688	-4.38
650.721	-2.38
650.755	5.62
650.788	27.62
650.821	2.62
650.854	-6.38
650.887	0.62
650.921	-8.38
650.954	-8.38
650.987	5.62
651.02	2.62
651.053	-21.38
651.087	-0.38
651.12	7.62
651.153	9.62
651.186	22.62
651.219	10.62
651.252	11.62
651.286	-9.38
651.319	-6.38
651.352	-17.38
651.385	9.62
651.418	1.62
651.451	17.62
651.484	12.62
651.518	1.62
651.551	21.62
651.584	-8.38
651.617	-0.38
651.65	4.62
651.683	7.62
651.716	-7.38
651.749	-6.38
651.783	-8.38
651.816	-4.38
651.849	29.62
651.882	11.62
651.915	-1.38
651.948	-0.38
651.981	-13.38
652.014	3.62
652.047	-6.38
652.08	-11.38
652.114	-21.38
652.147	2.62
652.18	-3.38
652.213	34.62
652.246	-2.38
652.279	-5.38
652.312	7.62
652.345	-8.38
652.378	11.62
652.411	13.62
652.444	6.62
652.477	5.62
652.51	14.62
652.543	-18.38
652.576	-0.38
652.609	1.62
652.642	3.62
652.675	10.62
652.709	2.62
652.742	-5.38
652.775	9.62
652.808	10.62
652.841	-9.38
652.874	3.62
652.907	-1.38
652.94	-17.38
652.973	-20.38
653.006	-4.38
653.039	-17.38
653.072	-15.38
653.105	1.62
653.138	2.62
653.171	0.62
653.204	-0.38
653.237	11.62
653.27	-9.38
653.303	-7.38
653.336	0.62
653.368	-3.38
653.401	-2.38
653.434	-0.38
653.467	4.62
653.5	-8.38
653.533	-19.38
653.566	-3.38
653.599	-1.38
653.632	8.62
653.665	0.62
653.698	-3.38
653.731	-3.38
653.764	-0.38
653.797	1.62
653.83	23.62
653.863	3.62
653.896	10.62
653.929	9.62
653.961	7.62
653.994	2.62
654.027	-14.38
654.06	12.62
654.093	13.62
654.126	-16.38
654.159	-30.38
654.192	9.62
654.225	7.62
654.258	-1.38
654.29	-7.38
654.323	16.62
654.356	-2.38
654.389	14.62
654.422	8.62
654.455	-10.38
654.488	-1.38
654.521	-12.38
654.553	-18.38
654.586	2.62
654.619	-14.38
654.652	0.62
654.685	-4.38
654.718	4.62
654.751	21.62
654.783	-7.38
654.816	7.62
654.849	12.62
654.882	11.62
654.915	-15.38
654.948	8.62
654.98	-5.38
655.013	-4.38
655.046	-16.38
655.079	-11.38
655.112	2.62
655.144	-10.38
655.177	-1.38
655.21	11.62
655.243	34.62
655.276	6.62
655.308	-6.38
655.341	-13.38
655.374	5.62
655.407	-2.38
655.44	3.62
655.472	8.62
655.505	7.62
655.538	-13.38
655.571	-0.38
655.603	1.62
655.636	6.62
655.669	17.62
655.702	1.62
655.734	-10.38
655.767	-2.38
655.8	4.62
655.833	23.62
655.865	15.62
655.898	6.62
655.931	25.62
655.964	22.62
655.996	14.62
656.029	31.62
656.062	31.62
656.095	41.62
656.127	67.62
656.16	192.62
656.193	603.62
656.225	949.62
656.258	568.62
656.291	221.62
656.324	172.62
656.356	351.62
656.389	746.62
656.422	667.62
656.454	237.62
656.487	84.62
656.52	34.62
656.552	10.62
656.585	6.62
656.618	13.62
656.65	-0.38
656.683	9.62
656.716	25.62
656.748	5.62
656.781	-18.38
656.814	1.62
656.846	7.62
656.879	0.62
656.912	-18.38
656.944	-22.38
656.977	-19.38
657.01	4.62
657.042	2.62
657.075	10.62
657.108	10.62
657.14	8.62
657.173	20.62
657.205	26.62
657.238	1.62
657.271	8.62
657.303	-8.38
657.336	-14.38
657.369	-11.38
657.401	11.62
657.434	4.62
657.466	-4.38
657.499	9.62
657.532	8.62
657.564	8.62
657.597	2.62
657.629	-3.38
657.662	-5.38
657.694	14.62
657.727	-10.38
657.76	23.62
657.792	-6.38
657.825	-12.38
657.857	-5.38
657.89	-2.38
657.922	15.62
657.955	-4.38
657.987	-9.38
658.02	8.62
658.053	7.62
658.085	7.62
658.118	-4.38
658.15	10.62
658.183	11.62
658.215	-1.38
658.248	0.62
658.28	-5.38
658.313	-0.38
658.345	7.62
658.378	10.62
658.41	-6.38
658.443	0.62
658.475	11.62
658.508	7.62
658.54	2.62
658.573	-1.38
658.605	7.62
658.638	2.62
658.67	-4.38
658.703	-10.38
658.735	-14.38
658.768	2.62
658.8	3.62
658.833	9.62
658.865	25.62
658.898	0.62
658.93	-10.38
658.963	-9.38
658.995	7.62
659.028	-4.38
659.06	-7.38
659.092	-1.38
659.125	-3.38
659.157	3.62
659.19	-9.38
659.222	-4.38
659.255	-5.38
659.287	2.62
659.32	-9.38
659.352	-5.38
659.384	-1.38
659.417	4.62
659.449	5.62
659.482	-4.38
659.514	2.62
659.546	-3.38
659.579	1.62
659.611	-13.38
659.644	-8.38
659.676	-12.38
659.708	-16.38
659.741	-16.38
659.773	12.62
659.806	6.62
659.838	10.62
659.87	-21.38
659.903	-25.38
659.935	7.62
659.967	0.62
660	-12.38
660.032	-18.38
660.065	9.62
660.097	7.62
660.129	-1.38
660.162	-6.38
660.194	7.62
660.226	0.62
660.259	-0.38
660.291	-6.38
660.323	-6.38
660.356	-3.38
660.388	-11.38
660.42	-16.38
660.453	-2.38
660.485	0.62
660.517	20.62
660.55	8.62
660.582	11.62
660.614	5.62
660.647	-1.38
660.679	-20.38
660.711	3.62
660.743	-27.38
660.776	-7.38
660.808	-0.38
660.84	-7.38
660.873	-8.38
660.905	-0.38
660.937	-8.38
660.969	-7.38
661.002	-12.38
661.034	-5.38
661.066	-13.38
661.099	-4.38
661.131	11.62
661.163	0.62
661.195	-3.38
661.228	14.62
661.26	-12.38
661.292	-23.38
661.324	0.62
661.357	-0.38
661.389	7.62
661.421	-3.38
661.453	2.62
661.485	0.62
661.518	13.62
661.55	-20.38
661.582	-21.38
661.614	-3.38
661.647	6.62
661.679	4.62
661.711	2.62
661.743	-3.38
661.775	12.62
661.808	0.62
661.84	-18.38
661.872	-4.38
661.904	-1.38
661.936	-1.38
661.969	-8.38
662.001	-8.38
662.033	-5.38
662.065	-1.38
662.097	19.62
662.129	6.62
662.162	-24.38
662.194	0.62
662.226	3.62
662.258	15.62
662.29	6.62
662.322	-11.38
662.355	-0.38
662.387	23.62
662.419	21.62
662.451	6.62
662.483	4.62
662.515	10.62
662.547	-5.38
662.58	-11.38
662.612	-19.38
662.644	-30.38
662.676	3.62
662.708	10.62
662.74	11.62
662.772	-0.38
662.804	-5.38
662.836	4.62
662.869	-2.38
662.901	-12.38
662.933	-7.38
662.965	9.62
662.997	-9.38
663.029	-9.38
663.061	-3.38
663.093	3.62
663.125	-3.38
663.157	9.62
663.189	-5.38
663.221	-5.38
663.254	-7.38
663.286	7.62
663.318	13.62
663.35	0.62
663.382	-2.38
663.414	-4.38
663.446	1.62
663.478	5.62
663.51	16.62
663.542	-17.38
663.574	0.62
663.606	2.62
663.638	4.62
663.67	-10.38
663.702	-10.38
663.734	-14.38
663.766	5.62
663.798	-1.38
663.83	-5.38
663.862	7.62
663.894	5.62
663.926	-0.38
663.958	14.62
663.99	-1.38
664.022	-3.38
664.054	11.62
664.086	-2.38
664.118	-3.38
664.15	-13.38
664.182	2.62
664.214	-12.38
664.246	16.62
664.278	-2.38
664.31	3.62
664.342	-9.38
664.374	-5.38
664.406	-6.38
664.438	1.62
664.47	6.62
664.502	6.62
664.534	5.62
664.566	-5.38
664.598	7.62
664.63	-8.38
664.662	-1.38
664.693	-7.38
664.725	-1.38
664.757	-3.38
664.789	-7.38
664.821	-3.38
664.853	4.62
664.885	-0.38
664.917	-16.38
664.949	8.62
664.981	16.62
665.013	8.62
665.045	-20.38
665.076	-16.38
665.108	5.62
665.14	-1.38
665.172	7.62
665.204	6.62
665.236	-3.38
665.268	10.62
665.3	-16.38
665.331	-10.38
665.363	-7.38
665.395	-23.38
665.427	-2.38
665.459	4.62
665.491	2.62
665.523	3.62
665.555	-6.38
665.586	-4.38
665.618	-17.38
665.65	2.62
665.682	2.62
665.714	0.62
665.746	-28.38
665.777	-7.38
665.809	-12.38
665.841	-5.38
665.873	-1.38
665.905	-7.38
665.937	7.62
665.968	-1.38
666	-19.38
666.032	-8.38
666.064	-16.38
666.096	-12.38
666.127	6.62
666.159	9.62
666.191	13.62
666.223	-3.38
666.255	4.62
666.286	-1.38
666.318	3.62
666.35	7.62
666.382	-7.38
666.413	-5.38
666.445	-0.38
666.477	-15.38
666.509	7.62
666.54	5.62
666.572	-2.38
666.604	-6.38
666.636	2.62
666.667	-0.38
666.699	1.62
666.731	7.62
666.763	-21.38
666.794	-1.38
666.826	-9.38
666.858	-5.38
666.89	16.62
666.921	3.62
666.953	3.62
666.985	13.62
667.017	7.62
667.048	-10.38
667.08	-2.38
667.112	-3.38
667.143	7.62
667.175	5.62
667.207	3.62
667.238	4.62
667.27	13.62
667.302	6.62
667.334	0.62
667.365	17.62
667.397	-2.38
667.429	-12.38
667.46	6.62
667.492	-2.38
667.524	-2.38
667.555	-11.38
667.587	-3.38
667.619	7.62
667.65	-1.38
667.682	3.62
667.714	-3.38
667.745	10.62
667.777	-3.38
667.808	10.62
667.84	11.62
667.872	-3.38
667.903	25.62
667.935	-11.38
667.967	2.62
667.998	11.62
668.03	-6.38
668.061	1.62
668.093	2.62
668.125	6.62
668.156	-3.38
668.188	-10.38
668.22	-9.38
668.251	7.62
668.283	12.62
668.314	8.62
668.346	-11.38
668.377	-18.38
668.409	-0.38
668.441	20.62
668.472	14.62
668.504	1.62
668.535	9.62
668.567	15.62
668.599	7.62
668.63	0.62
668.662	-7.38
668.693	35.62
668.725	4.62
668.756	16.62
668.788	7.62
668.819	-4.38
668.851	17.62
668.882	2.62
668.914	0.62
668.946	-1.38
668.977	4.62
669.009	-16.38
669.04	-6.38
669.072	14.62
669.103	0.62
669.135	8.62
669.166	9.62
669.198	0.62
669.229	5.62
669.261	0.62
669.292	-0.38
669.324	10.62
669.355	18.62
669.387	-8.38
669.418	1.62
669.45	-10.38
669.481	12.62
669.513	20.62
669.544	-6.38
669.576	5.62
669.607	7.62
669.639	8.62
669.67	4.62
669.701	1.62
669.733	-14.38
669.764	1.62
669.796	1.62
669.827	-12.38
669.859	-6.38
669.89	9.62
669.922	13.62
669.953	-1.38
669.985	-2.38
670.016	-8.38
670.047	9.62
670.079	7.62
670.11	7.62
670.142	-0.38
670.173	2.62
670.204	-5.38
670.236	-7.38
670.267	-3.38
670.299	9.62
670.33	19.62
670.362	6.62
670.393	-26.38
670.424	4.62
670.456	-17.38
670.487	-18.38
670.518	-16.38
670.55	5.62
670.581	3.62
670.613	8.62
670.644	-5.38
670.675	0.62
670.707	3.62
670.738	12.62
670.769	-1.38
670.801	-13.38
670.832	9.62
670.864	3.62
670.895	18.62
670.926	-7.38
670.958	-7.38
670.989	-9.38
671.02	-9.38
671.052	3.62
671.083	5.62
671.114	-1.38
671.146	7.62
671.177	16.62
671.208	-2.38
671.24	-4.38
671.271	-3.38
671.302	-3.38
671.333	4.62
671.365	-21.38
671.396	3.62
671.427	1.62
671.459	-1.38
671.49	-11.38
671.521	-9.38
671.553	7.62
671.584	13.62
671.615	18.62
671.646	14.62
671.678	-5.38
671.709	-20.38
671.74	-19.38
671.771	0.62
671.803	7.62
671.834	5.62
671.865	1.62
671.896	19.62
671.928	0.62
671.959	11.62
671.99	4.62
672.021	8.62
672.053	4.62
672.084	14.62
672.115	10.62
672.146	3.62
672.178	-15.38
672.209	3.62
672.24	3.62
672.271	23.62
672.303	11.62
672.334	9.62
672.365	-5.38
672.396	10.62
672.427	2.62
672.459	3.62
672.49	8.62
672.521	-2.38
672.552	0.62
672.583	-1.38
672.615	-12.38
672.646	13.62
672.677	-4.38
672.708	-9.38
672.739	4.62
672.77	9.62
672.802	0.62
672.833	-1.38
672.864	-7.38
672.895	-9.38
672.926	-10.38
672.957	-12.38
672.989	-9.38
673.02	-10.38
673.051	-3.38
673.082	1.62
673.113	-1.38
673.144	6.62
673.175	1.62
673.206	-4.38
673.238	-10.38
673.269	-7.38
673.3	-10.38
673.331	11.62
673.362	1.62
673.393	3.62
673.424	-3.38
673.455	4.62
673.487	3.62
673.518	6.62
673.549	6.62
673.58	-5.38
673.611	-0.38
673.642	6.62
673.673	5.62
673.704	13.62
673.735	-2.38
673.766	-23.38
673.797	0.62
673.828	-1.38
673.86	-11.38
673.891	-2.38
673.922	-5.38
673.953	-2.38
673.984	-13.38
674.015	8.62
674.046	-9.38
674.077	-11.38
674.108	-11.38
674.139	-5.38
674.17	3.62
674.201	-4.38
674.232	-26.38
674.263	-0.38
674.294	-4.38
674.325	-5.38
674.356	4.62
674.387	5.62
674.418	-10.38
674.449	-17.38
674.48	-10.38
674.511	7.62
674.542	12.62
674.573	-21.38
674.604	9.62
674.635	-5.38
674.666	9.62
674.697	-9.38
674.728	-16.38
674.759	4.62
674.79	-21.38
674.821	-23.38
674.852	-9.38
674.883	-1.38
674.914	18.62
674.945	6.62
674.976	1.62
675.007	-4.38
675.038	-17.38
675.069	-27.38
675.1	-11.38
675.131	2.62
675.162	-5.38
675.193	-9.38
675.224	-9.38
675.254	14.62
675.285	1.62
675.316	10.62
675.347	-13.38
675.378	-16.38
675.409	5.62
675.44	5.62
675.471	-4.38
675.502	-5.38
675.533	-12.38
675.564	-8.38
675.595	-4.38
675.625	17.62
675.656	1.62
675.687	5.62
675.718	-5.38
675.749	1.62
675.78	17.62
675.811	-8.38
675.842	13.62
675.873	-15.38
675.903	-7.38
675.934	-2.38
675.965	-7.38
675.996	-5.38
676.027	-4.38
676.058	1.62
676.089	-15.38
676.119	0.62
676.15	-11.38
676.181	-15.38
676.212	4.62
676.243	9.62
676.274	-1.38
676.304	18.62
676.335	-11.38
676.366	-0.38
676.397	-3.38
676.428	15.62
676.459	12.62
676.489	20.62
676.52	3.62
676.551	-13.38
676.582	5.62
676.613	-8.38
676.643	-7.38
676.674	-4.38
676.705	3.62
676.736	1.62
676.767	22.62
676.797	12.62
676.828	15.62
676.859	6.62
676.89	2.62
676.92	6.62
676.951	7.62
676.982	-0.38
677.013	-6.38
677.044	6.62
677.074	0.62
677.105	-20.38
677.136	7.62
677.167	4.62
677.197	2.62
677.228	9.62
677.259	-8.38
677.289	1.62
677.32	-2.38
677.351	-11.38
677.382	-13.38
677.412	-9.38
677.443	-0.38
677.474	-8.38
677.505	-6.38
677.535	2.62
677.566	-27.38
677.597	-11.38
677.627	-6.38
677.658	2.62
677.689	7.62
677.72	0.62
677.75	-2.38
677.781	6.62
677.812	-5.38
677.842	12.62
677.873	2.62
677.904	-4.38
677.934	-9.38
677.965	-9.38
677.996	-20.38
678.026	-14.38
678.057	-1.38
678.088	-17.38
678.118	-11.38
678.149	-15.38
678.18	-15.38
678.21	-17.38
678.241	-4.38
678.272	-4.38
678.302	7.62
678.333	9.62
678.363	-5.38
678.394	0.62
678.425	-8.38
678.455	12.62
678.486	17.62
678.517	4.62
678.547	-9.38
678.578	-3.38
678.608	-15.38
678.639	10.62
678.67	0.62
678.7	-9.38
678.731	0.62
678.761	3.62
678.792	-8.38
678.823	12.62
678.853	1.62
678.884	-17.38
678.914	9.62
678.945	0.62
678.975	-1.38
679.006	13.62
679.037	-9.38
679.067	6.62
679.098	-1.38
679.128	-3.38
679.159	5.62
679.189	6.62
679.22	1.62
679.25	7.62
679.281	-3.38
679.312	-4.38
679.342	1.62
679.373	17.62
679.403	10.62
679.434	-8.38
679.464	-8.38
679.495	8.62
679.525	-6.38
679.556	-3.38
679.586	3.62
679.617	9.62
679.647	-7.38
679.678	2.62
679.708	1.62
679.739	2.62
679.769	-3.38
679.8	-7.38
679.83	-12.38
679.861	15.62
679.891	-0.38
679.922	-18.38
679.952	9.62
679.983	-5.38
680.013	-8.38
680.044	-6.38
680.074	9.62
680.105	2.62
680.135	2.62
680.165	4.62
680.196	11.62
680.226	-15.38
680.257	10.62
680.287	-4.38
680.318	0.62
680.348	-2.38
680.379	12.62
680.409	4.62
680.439	5.62
680.47	0.62
680.5	-2.38
680.531	-4.38
680.561	7.62
680.592	2.62
680.622	1.62
680.652	4.62
680.683	2.62
680.713	7.62
680.744	6.62
680.774	1.62
680.804	13.62
680.835	-1.38
680.865	-16.38
680.896	11.62
680.926	17.62
680.956	3.62
680.987	8.62
681.017	-10.38
681.047	21.62
681.078	-5.38
681.108	0.62
681.139	0.62
681.169	2.62
681.199	8.62
681.23	-1.38
681.26	-7.38
681.29	-3.38
681.321	-1.38
681.351	-5.38
681.381	-11.38
681.412	-0.38
681.442	9.62
681.472	7.62
681.503	0.62
681.533	6.62
681.563	-1.38
681.594	-11.38
681.624	5.62
681.654	-6.38
681.685	-8.38
681.715	-0.38
681.745	-4.38
681.775	-11.38
681.806	2.62
681.836	3.62
681.866	-19.38
681.897	-2.38
681.927	0.62
681.957	3.62
681.987	13.62
682.018	8.62
682.048	8.62
682.078	4.62
682.109	6.62
682.139	-2.38
682.169	6.62
682.199	2.62
682.23	-8.38
682.26	-2.38
682.29	-7.38
682.32	16.62
682.351	-3.38
682.381	-18.38
682.411	-5.38
682.441	1.62
