Data from HighRes_H2D2_15_04_11_07_2024_HR4C61891__71__15-05-41-543.txt Node

Date: Thu Nov 07 15:05:41 EST 2024
User: crc00042
Spectrometer: HR4C6189
Trigger mode: 4
Integration Time (sec): 1.000000E-1
Scans to average: 1
Electric dark correction enabled: true
Nonlinearity correction enabled: false
Boxcar width: 0
XAxis mode: Wavelengths
Number of Pixels in Spectrum: 3648
>>>>>Begin Spectral Data<<<<<
639.567	-41.85
639.602	-41.85
639.636	-41.85
639.67	-43.85
639.704	-31.85
639.738	11.15
639.773	0.15
639.807	-16.85
639.841	-9.85
639.875	17.15
639.909	9.15
639.943	-16.85
639.978	-1.85
640.012	0.15
640.046	22.15
640.08	9.15
640.114	-3.85
640.148	-19.85
640.182	-5.85
640.217	-5.85
640.251	19.15
640.285	-15.85
640.319	-21.85
640.353	7.15
640.387	2.15
640.421	2.15
640.455	4.15
640.49	-1.85
640.524	-13.85
640.558	3.15
640.592	18.15
640.626	1.15
640.66	11.15
640.694	12.15
640.728	7.15
640.762	8.15
640.796	10.15
640.83	23.15
640.865	8.15
640.899	7.15
640.933	-7.85
640.967	-4.85
641.001	3.15
641.035	10.15
641.069	0.15
641.103	-14.85
641.137	-7.85
641.171	-2.85
641.205	12.15
641.239	16.15
641.273	7.15
641.307	12.15
641.341	1.15
641.375	-1.85
641.409	-19.85
641.443	-3.85
641.477	22.15
641.511	6.15
641.545	8.15
641.579	8.15
641.614	16.15
641.648	9.15
641.682	-12.85
641.716	3.15
641.75	18.15
641.784	15.15
641.818	0.15
641.852	15.15
641.886	6.15
641.919	25.15
641.953	5.15
641.987	-14.85
642.021	-4.85
642.055	14.15
642.089	-1.85
642.123	0.15
642.157	-5.85
642.191	7.15
642.225	10.15
642.259	-7.85
642.293	7.15
642.327	1.15
642.361	6.15
642.395	20.15
642.429	28.15
642.463	5.15
642.497	15.15
642.531	3.15
642.565	0.15
642.599	-0.85
642.633	2.15
642.666	18.15
642.7	31.15
642.734	9.15
642.768	3.15
642.802	3.15
642.836	13.15
642.87	5.15
642.904	10.15
642.938	11.15
642.972	-0.85
643.005	-0.85
643.039	21.15
643.073	9.15
643.107	14.15
643.141	6.15
643.175	1.15
643.209	9.15
643.243	-2.85
643.276	1.15
643.31	3.15
643.344	-16.85
643.378	-0.85
643.412	7.15
643.446	3.15
643.48	-6.85
643.513	8.15
643.547	9.15
643.581	-8.85
643.615	-9.85
643.649	5.15
643.683	8.15
643.716	10.15
643.75	8.15
643.784	0.15
643.818	3.15
643.852	7.15
643.886	3.15
643.919	8.15
643.953	-7.85
643.987	1.15
644.021	3.15
644.055	0.15
644.088	7.15
644.122	1.15
644.156	-2.85
644.19	-15.85
644.224	7.15
644.257	10.15
644.291	11.15
644.325	4.15
644.359	12.15
644.392	27.15
644.426	0.15
644.46	-5.85
644.494	7.15
644.527	-18.85
644.561	8.15
644.595	-1.85
644.629	0.15
644.662	-0.85
644.696	10.15
644.73	-5.85
644.764	2.15
644.797	4.15
644.831	-6.85
644.865	-1.85
644.899	-4.85
644.932	18.15
644.966	2.15
645	-8.85
645.033	6.15
645.067	-0.85
645.101	1.15
645.135	-3.85
645.168	-8.85
645.202	-6.85
645.236	10.15
645.269	17.15
645.303	-4.85
645.337	-14.85
645.37	-15.85
645.404	-6.85
645.438	6.15
645.471	1.15
645.505	3.15
645.539	9.15
645.572	1.15
645.606	-6.85
645.64	19.15
645.673	6.15
645.707	32.15
645.741	-0.85
645.774	-3.85
645.808	9.15
645.842	5.15
645.875	6.15
645.909	-9.85
645.943	-4.85
645.976	5.15
646.01	13.15
646.043	20.15
646.077	17.15
646.111	11.15
646.144	9.15
646.178	12.15
646.212	-8.85
646.245	9.15
646.279	2.15
646.312	-3.85
646.346	11.15
646.38	4.15
646.413	14.15
646.447	4.15
646.48	2.15
646.514	-3.85
646.547	-0.85
646.581	3.15
646.615	-8.85
646.648	6.15
646.682	-11.85
646.715	13.15
646.749	18.15
646.782	-5.85
646.816	-2.85
646.85	-0.85
646.883	-15.85
646.917	7.15
646.95	4.15
646.984	3.15
647.017	4.15
647.051	-1.85
647.084	5.15
647.118	-0.85
647.151	10.15
647.185	19.15
647.218	-8.85
647.252	4.15
647.285	-9.85
647.319	-15.85
647.353	11.15
647.386	7.15
647.42	9.15
647.453	4.15
647.487	6.15
647.52	14.15
647.553	17.15
647.587	6.15
647.62	0.15
647.654	14.15
647.687	9.15
647.721	-2.85
647.754	14.15
647.788	7.15
647.821	-2.85
647.855	0.15
647.888	4.15
647.922	3.15
647.955	13.15
647.989	3.15
648.022	16.15
648.055	13.15
648.089	-13.85
648.122	30.15
648.156	-0.85
648.189	6.15
648.223	8.15
648.256	19.15
648.29	6.15
648.323	-10.85
648.356	10.15
648.39	0.15
648.423	-5.85
648.457	-1.85
648.49	0.15
648.523	2.15
648.557	7.15
648.59	-13.85
648.624	-3.85
648.657	5.15
648.69	32.15
648.724	26.15
648.757	8.15
648.791	10.15
648.824	11.15
648.857	9.15
648.891	-2.85
648.924	-9.85
648.957	24.15
648.991	-14.85
649.024	3.15
649.057	2.15
649.091	18.15
649.124	6.15
649.158	8.15
649.191	19.15
649.224	-4.85
649.258	15.15
649.291	-6.85
649.324	15.15
649.358	3.15
649.391	7.15
649.424	8.15
649.458	-17.85
649.491	8.15
649.524	-10.85
649.557	-1.85
649.591	-20.85
649.624	-6.85
649.657	-1.85
649.691	2.15
649.724	9.15
649.757	-2.85
649.791	-3.85
649.824	17.15
649.857	10.15
649.89	-2.85
649.924	-2.85
649.957	-5.85
649.99	-6.85
650.023	2.15
650.057	0.15
650.09	-3.85
650.123	3.15
650.157	17.15
650.19	29.15
650.223	-4.85
650.256	-14.85
650.29	3.15
650.323	3.15
650.356	7.15
650.389	-9.85
650.423	-11.85
650.456	6.15
650.489	-2.85
650.522	-7.85
650.555	6.15
650.589	16.15
650.622	-0.85
650.655	12.15
650.688	-3.85
650.721	-14.85
650.755	-17.85
650.788	-4.85
650.821	7.15
650.854	-5.85
650.887	-2.85
650.921	1.15
650.954	-8.85
650.987	5.15
651.02	3.15
651.053	-5.85
651.087	-10.85
651.12	29.15
651.153	16.15
651.186	22.15
651.219	6.15
651.252	3.15
651.286	-5.85
651.319	-8.85
651.352	10.15
651.385	8.15
651.418	2.15
651.451	7.15
651.484	12.15
651.518	-0.85
651.551	25.15
651.584	6.15
651.617	20.15
651.65	17.15
651.683	6.15
651.716	-2.85
651.749	-7.85
651.783	-5.85
651.816	14.15
651.849	17.15
651.882	-0.85
651.915	18.15
651.948	13.15
651.981	0.15
652.014	-23.85
652.047	-21.85
652.08	4.15
652.114	-9.85
652.147	-0.85
652.18	-1.85
652.213	15.15
652.246	-9.85
652.279	-1.85
652.312	3.15
652.345	-3.85
652.378	2.15
652.411	3.15
652.444	2.15
652.477	13.15
652.51	10.15
652.543	0.15
652.576	13.15
652.609	-2.85
652.642	10.15
652.675	18.15
652.709	13.15
652.742	2.15
652.775	11.15
652.808	16.15
652.841	-14.85
652.874	9.15
652.907	0.15
652.94	0.15
652.973	0.15
653.006	0.15
653.039	3.15
653.072	10.15
653.105	-4.85
653.138	-2.85
653.171	12.15
653.204	8.15
653.237	10.15
653.27	5.15
653.303	7.15
653.336	15.15
653.368	-12.85
653.401	-4.85
653.434	-3.85
653.467	14.15
653.5	-15.85
653.533	-14.85
653.566	18.15
653.599	-1.85
653.632	13.15
653.665	14.15
653.698	-5.85
653.731	2.15
653.764	15.15
653.797	5.15
653.83	10.15
653.863	-2.85
653.896	18.15
653.929	-5.85
653.961	17.15
653.994	1.15
654.027	-16.85
654.06	6.15
654.093	19.15
654.126	14.15
654.159	-22.85
654.192	1.15
654.225	9.15
654.258	0.15
654.29	-2.85
654.323	7.15
654.356	3.15
654.389	7.15
654.422	7.15
654.455	9.15
654.488	8.15
654.521	-11.85
654.553	-13.85
654.586	-2.85
654.619	9.15
654.652	9.15
654.685	13.15
654.718	9.15
654.751	35.15
654.783	11.15
654.816	11.15
654.849	12.15
654.882	2.15
654.915	1.15
654.948	15.15
654.98	-2.85
655.013	-3.85
655.046	6.15
655.079	-6.85
655.112	3.15
655.144	-3.85
655.177	3.15
655.21	16.15
655.243	13.15
655.276	-4.85
655.308	-12.85
655.341	-11.85
655.374	26.15
655.407	18.15
655.44	11.15
655.472	6.15
655.505	5.15
655.538	3.15
655.571	19.15
655.603	14.15
655.636	10.15
655.669	17.15
655.702	10.15
655.734	-2.85
655.767	2.15
655.8	0.15
655.833	11.15
655.865	7.15
655.898	9.15
655.931	13.15
655.964	19.15
655.996	7.15
656.029	20.15
656.062	38.15
656.095	68.15
656.127	82.15
656.16	226.15
656.193	637.15
656.225	945.15
656.258	570.15
656.291	229.15
656.324	189.15
656.356	376.15
656.389	766.15
656.422	689.15
656.454	244.15
656.487	88.15
656.52	51.15
656.552	17.15
656.585	8.15
656.618	1.15
656.65	2.15
656.683	-3.85
656.716	14.15
656.748	-5.85
656.781	-1.85
656.814	-15.85
656.846	0.15
656.879	6.15
656.912	16.15
656.944	-13.85
656.977	1.15
657.01	-6.85
657.042	13.15
657.075	15.15
657.108	-11.85
657.14	8.15
657.173	17.15
657.205	24.15
657.238	12.15
657.271	11.15
657.303	-10.85
657.336	8.15
657.369	11.15
657.401	5.15
657.434	-5.85
657.466	10.15
657.499	18.15
657.532	-7.85
657.564	2.15
657.597	16.15
657.629	16.15
657.662	13.15
657.694	10.15
657.727	2.15
657.76	18.15
657.792	5.15
657.825	-6.85
657.857	16.15
657.89	12.15
657.922	20.15
657.955	-3.85
657.987	2.15
658.02	11.15
658.053	10.15
658.085	-1.85
658.118	15.15
658.15	3.15
658.183	12.15
658.215	2.15
658.248	-0.85
658.28	6.15
658.313	12.15
658.345	-1.85
658.378	-0.85
658.41	0.15
658.443	13.15
658.475	-7.85
658.508	-10.85
658.54	1.15
658.573	0.15
658.605	10.15
658.638	12.15
658.67	-3.85
658.703	-2.85
658.735	-14.85
658.768	16.15
658.8	6.15
658.833	23.15
658.865	5.15
658.898	6.15
658.93	0.15
658.963	4.15
658.995	-17.85
659.028	6.15
659.06	8.15
659.092	-11.85
659.125	-10.85
659.157	9.15
659.19	5.15
659.222	-4.85
659.255	-1.85
659.287	9.15
659.32	-7.85
659.352	2.15
659.384	7.15
659.417	1.15
659.449	1.15
659.482	14.15
659.514	-10.85
659.546	-1.85
659.579	6.15
659.611	1.15
659.644	-18.85
659.676	-9.85
659.708	-8.85
659.741	-20.85
659.773	6.15
659.806	-8.85
659.838	-1.85
659.87	2.15
659.903	-4.85
659.935	6.15
659.967	8.15
660	13.15
660.032	-6.85
660.065	7.15
660.097	-11.85
660.129	15.15
660.162	-6.85
660.194	-16.85
660.226	10.15
660.259	7.15
660.291	-10.85
660.323	-11.85
660.356	-4.85
660.388	-7.85
660.42	0.15
660.453	15.15
660.485	18.15
660.517	26.15
660.55	20.15
660.582	2.15
660.614	11.15
660.647	-2.85
660.679	-8.85
660.711	5.15
660.743	-12.85
660.776	-2.85
660.808	-5.85
660.84	0.15
660.873	-3.85
660.905	6.15
660.937	0.15
660.969	10.15
661.002	8.15
661.034	11.15
661.066	-11.85
661.099	18.15
661.131	9.15
661.163	-9.85
661.195	-13.85
661.228	10.15
661.26	-8.85
661.292	-7.85
661.324	6.15
661.357	-3.85
661.389	12.15
661.421	25.15
661.453	-5.85
661.485	11.15
661.518	6.15
661.55	-0.85
661.582	-13.85
661.614	-0.85
661.647	3.15
661.679	3.15
661.711	1.15
661.743	-4.85
661.775	8.15
661.808	29.15
661.84	12.15
661.872	6.15
661.904	1.15
661.936	-9.85
661.969	-17.85
662.001	-9.85
662.033	-3.85
662.065	-0.85
662.097	18.15
662.129	-1.85
662.162	-6.85
662.194	5.15
662.226	-0.85
662.258	14.15
662.29	6.15
662.322	-12.85
662.355	-13.85
662.387	21.15
662.419	3.15
662.451	7.15
662.483	2.15
662.515	-3.85
662.547	6.15
662.58	8.15
662.612	1.15
662.644	-16.85
662.676	1.15
662.708	23.15
662.74	4.15
662.772	6.15
662.804	15.15
662.836	2.15
662.869	-9.85
662.901	18.15
662.933	0.15
662.965	23.15
662.997	25.15
663.029	-11.85
663.061	7.15
663.093	15.15
663.125	19.15
663.157	3.15
663.189	15.15
663.221	2.15
663.254	-6.85
663.286	14.15
663.318	-5.85
663.35	4.15
663.382	13.15
663.414	22.15
663.446	14.15
663.478	-0.85
663.51	17.15
663.542	-10.85
663.574	-5.85
663.606	5.15
663.638	-2.85
663.67	6.15
663.702	-2.85
663.734	6.15
663.766	12.15
663.798	-21.85
663.83	-8.85
663.862	0.15
663.894	5.15
663.926	10.15
663.958	13.15
663.99	-3.85
664.022	-6.85
664.054	-0.85
664.086	8.15
664.118	-0.85
664.15	2.15
664.182	13.15
664.214	4.15
664.246	10.15
664.278	-0.85
664.31	11.15
664.342	11.15
664.374	-6.85
664.406	-5.85
664.438	-6.85
664.47	7.15
664.502	1.15
664.534	-15.85
664.566	-22.85
664.598	15.15
664.63	-2.85
664.662	12.15
664.693	-11.85
664.725	-17.85
664.757	10.15
664.789	-13.85
664.821	6.15
664.853	14.15
664.885	6.15
664.917	-4.85
664.949	10.15
664.981	24.15
665.013	3.15
665.045	9.15
665.076	7.15
665.108	0.15
665.14	-12.85
665.172	-1.85
665.204	-7.85
665.236	13.15
665.268	12.15
665.3	-0.85
665.331	-4.85
665.363	-3.85
665.395	-4.85
665.427	-4.85
665.459	8.15
665.491	8.15
665.523	7.15
665.555	4.15
665.586	9.15
665.618	2.15
665.65	-20.85
665.682	-2.85
665.714	20.15
665.746	7.15
665.777	-2.85
665.809	1.15
665.841	7.15
665.873	4.15
665.905	8.15
665.937	18.15
665.968	0.15
666	-4.85
666.032	1.15
666.064	-1.85
666.096	-1.85
666.127	6.15
666.159	2.15
666.191	13.15
666.223	5.15
666.255	-3.85
666.286	7.15
666.318	-3.85
666.35	15.15
666.382	2.15
666.413	-0.85
666.445	-7.85
666.477	-5.85
666.509	-5.85
666.54	3.15
666.572	-4.85
666.604	4.15
666.636	4.15
666.667	12.15
666.699	14.15
666.731	-0.85
666.763	-9.85
666.794	-4.85
666.826	9.15
666.858	-9.85
666.89	3.15
666.921	10.15
666.953	9.15
666.985	3.15
667.017	13.15
667.048	0.15
667.08	2.15
667.112	1.15
667.143	-7.85
667.175	16.15
667.207	11.15
667.238	11.15
667.27	13.15
667.302	12.15
667.334	-0.85
667.365	27.15
667.397	3.15
667.429	1.15
667.46	13.15
667.492	16.15
667.524	7.15
667.555	-13.85
667.587	-9.85
667.619	-15.85
667.65	-4.85
667.682	-3.85
667.714	8.15
667.745	13.15
667.777	16.15
667.808	10.15
667.84	14.15
667.872	0.15
667.903	30.15
667.935	13.15
667.967	7.15
667.998	9.15
668.03	10.15
668.061	5.15
668.093	-7.85
668.125	-5.85
668.156	9.15
668.188	3.15
668.22	-17.85
668.251	9.15
668.283	0.15
668.314	6.15
668.346	1.15
668.377	-0.85
668.409	-2.85
668.441	7.15
668.472	17.15
668.504	9.15
668.535	9.15
668.567	25.15
668.599	13.15
668.63	4.15
668.662	2.15
668.693	30.15
668.725	1.15
668.756	16.15
668.788	2.15
668.819	1.15
668.851	-13.85
668.882	5.15
668.914	-12.85
668.946	-5.85
668.977	4.15
669.009	8.15
669.04	-16.85
669.072	0.15
669.103	1.15
669.135	0.15
669.166	7.15
669.198	16.15
669.229	6.15
669.261	-2.85
669.292	-4.85
669.324	10.15
669.355	12.15
669.387	9.15
669.418	-4.85
669.45	-5.85
669.481	5.15
669.513	-5.85
669.544	-0.85
669.576	-3.85
669.607	11.15
669.639	5.15
669.67	8.15
669.701	16.15
669.733	-14.85
669.764	-6.85
669.796	3.15
669.827	-18.85
669.859	11.15
669.89	6.15
669.922	14.15
669.953	6.15
669.985	-11.85
670.016	15.15
670.047	-7.85
670.079	-3.85
670.11	10.15
670.142	8.15
670.173	5.15
670.204	3.15
670.236	11.15
670.267	18.15
670.299	2.15
670.33	-7.85
670.362	6.15
670.393	-4.85
670.424	-3.85
670.456	-23.85
670.487	-5.85
670.518	3.15
670.55	7.15
670.581	-9.85
670.613	-9.85
670.644	-0.85
670.675	-3.85
670.707	-3.85
670.738	1.15
670.769	13.15
670.801	-9.85
670.832	9.15
670.864	1.15
670.895	14.15
670.926	9.15
670.958	7.15
670.989	7.15
671.02	-12.85
671.052	-7.85
671.083	2.15
671.114	-5.85
671.146	18.15
671.177	7.15
671.208	-14.85
671.24	3.15
671.271	-9.85
671.302	-9.85
671.333	-7.85
671.365	-0.85
671.396	5.15
671.427	14.15
671.459	11.15
671.49	-4.85
671.521	9.15
671.553	7.15
671.584	12.15
671.615	13.15
671.646	8.15
671.678	0.15
671.709	-10.85
671.74	-23.85
671.771	-0.85
671.803	6.15
671.834	-14.85
671.865	-8.85
671.896	2.15
671.928	-0.85
671.959	-4.85
671.99	-1.85
672.021	-13.85
672.053	-6.85
672.084	23.15
672.115	8.15
672.146	-3.85
672.178	-18.85
672.209	-23.85
672.24	1.15
672.271	25.15
672.303	9.15
672.334	13.15
672.365	0.15
672.396	-0.85
672.427	7.15
672.459	21.15
672.49	34.15
672.521	23.15
672.552	11.15
672.583	0.15
672.615	5.15
672.646	26.15
672.677	-5.85
672.708	-2.85
672.739	10.15
672.77	16.15
672.802	5.15
672.833	7.15
672.864	-7.85
672.895	-4.85
672.926	-12.85
672.957	-22.85
672.989	-9.85
673.02	5.15
673.051	2.15
673.082	25.15
673.113	2.15
673.144	3.15
673.175	-4.85
673.206	-1.85
673.238	-4.85
673.269	-4.85
673.3	-25.85
673.331	9.15
673.362	2.15
673.393	2.15
673.424	7.15
673.455	19.15
673.487	9.15
673.518	9.15
673.549	14.15
673.58	7.15
673.611	11.15
673.642	-2.85
673.673	-24.85
673.704	12.15
673.735	6.15
673.766	-0.85
673.797	5.15
673.828	3.15
673.86	-16.85
673.891	-17.85
673.922	-13.85
673.953	-4.85
673.984	14.15
674.015	2.15
674.046	2.15
674.077	-0.85
674.108	23.15
674.139	0.15
674.17	-7.85
674.201	-21.85
674.232	-6.85
674.263	-11.85
674.294	-0.85
674.325	-17.85
674.356	8.15
674.387	10.15
674.418	-5.85
674.449	1.15
674.48	-7.85
674.511	-12.85
674.542	6.15
674.573	-20.85
674.604	8.15
674.635	-3.85
674.666	22.15
674.697	12.15
674.728	7.15
674.759	-0.85
674.79	-7.85
674.821	-10.85
674.852	-2.85
674.883	16.15
674.914	4.15
674.945	-1.85
674.976	13.15
675.007	0.15
675.038	-2.85
675.069	-5.85
675.1	-12.85
675.131	-7.85
675.162	-12.85
675.193	1.15
675.224	-3.85
675.254	6.15
675.285	13.15
675.316	26.15
675.347	2.15
675.378	-17.85
675.409	-5.85
675.44	22.15
675.471	18.15
675.502	10.15
675.533	5.15
675.564	3.15
675.595	4.15
675.625	14.15
675.656	6.15
675.687	13.15
675.718	-12.85
675.749	4.15
675.78	4.15
675.811	-8.85
675.842	4.15
675.873	1.15
675.903	-23.85
675.934	10.15
675.965	0.15
675.996	-8.85
676.027	2.15
676.058	1.15
676.089	-12.85
676.119	1.15
676.15	-8.85
676.181	0.15
676.212	-1.85
676.243	26.15
676.274	-12.85
676.304	13.15
676.335	2.15
676.366	2.15
676.397	-1.85
676.428	-3.85
676.459	5.15
676.489	13.15
676.52	7.15
676.551	-4.85
676.582	-12.85
676.613	5.15
676.643	-12.85
676.674	10.15
676.705	5.15
676.736	-3.85
676.767	2.15
676.797	16.15
676.828	3.15
676.859	1.15
676.89	11.15
676.92	-7.85
676.951	13.15
676.982	5.15
677.013	6.15
677.044	9.15
677.074	2.15
677.105	-9.85
677.136	15.15
677.167	2.15
677.197	8.15
677.228	17.15
677.259	0.15
677.289	6.15
677.32	-6.85
677.351	-15.85
677.382	-4.85
677.412	-6.85
677.443	0.15
677.474	-4.85
677.505	-5.85
677.535	6.15
677.566	2.15
677.597	-1.85
677.627	-6.85
677.658	-4.85
677.689	-13.85
677.72	8.15
677.75	0.15
677.781	13.15
677.812	19.15
677.842	1.15
677.873	0.15
677.904	7.15
677.934	0.15
677.965	5.15
677.996	-0.85
678.026	18.15
678.057	3.15
678.088	-14.85
678.118	-1.85
678.149	-15.85
678.18	4.15
678.21	6.15
678.241	10.15
678.272	-1.85
678.302	5.15
678.333	10.15
678.363	8.15
678.394	-3.85
678.425	0.15
678.455	-7.85
678.486	12.15
678.517	9.15
678.547	11.15
678.578	6.15
678.608	-16.85
678.639	8.15
678.67	18.15
678.7	-3.85
678.731	-7.85
678.761	6.15
678.792	-6.85
678.823	-11.85
678.853	8.15
678.884	-7.85
678.914	11.15
678.945	9.15
678.975	4.15
679.006	16.15
679.037	0.15
679.067	19.15
679.098	-7.85
679.128	-9.85
679.159	0.15
679.189	18.15
679.22	-7.85
679.25	8.15
679.281	14.15
679.312	0.15
679.342	-14.85
679.373	25.15
679.403	8.15
679.434	14.15
679.464	-6.85
679.495	9.15
679.525	9.15
679.556	6.15
679.586	14.15
679.617	2.15
679.647	-5.85
679.678	4.15
679.708	6.15
679.739	0.15
679.769	-3.85
679.8	-13.85
679.83	8.15
679.861	12.15
679.891	6.15
679.922	-14.85
679.952	-1.85
679.983	15.15
680.013	17.15
680.044	5.15
680.074	13.15
680.105	9.15
680.135	-2.85
680.165	4.15
680.196	11.15
680.226	-3.85
680.257	13.15
680.287	7.15
680.318	-6.85
680.348	-12.85
680.379	22.15
680.409	10.15
680.439	6.15
680.47	7.15
680.5	-3.85
680.531	-4.85
680.561	6.15
680.592	4.15
680.622	11.15
680.652	-11.85
680.683	15.15
680.713	-5.85
680.744	-8.85
680.774	1.15
680.804	13.15
680.835	-12.85
680.865	-22.85
680.896	5.15
680.926	16.15
680.956	7.15
680.987	-3.85
681.017	3.15
681.047	0.15
681.078	-9.85
681.108	0.15
681.139	9.15
681.169	1.15
681.199	-5.85
681.23	5.15
681.26	-4.85
681.29	-4.85
681.321	8.15
681.351	-6.85
681.381	-14.85
681.412	-5.85
681.442	-10.85
681.472	1.15
681.503	9.15
681.533	-2.85
681.563	-4.85
681.594	10.15
681.624	1.15
681.654	-11.85
681.685	1.15
681.715	6.15
681.745	8.15
681.775	-3.85
681.806	9.15
681.836	6.15
681.866	-1.85
681.897	4.15
681.927	-7.85
681.957	-17.85
681.987	10.15
682.018	-4.85
682.048	13.15
682.078	9.15
682.109	23.15
682.139	5.15
682.169	5.15
682.199	1.15
682.23	1.15
682.26	8.15
682.29	-10.85
682.32	0.15
682.351	6.15
682.381	5.15
682.411	8.15
682.441	5.15
682.472	-9.85
682.502	-13.85
682.532	6.15
682.562	1.15
682.592	-8.85
682.623	10.15
682.653	8.15
682.683	8.15
682.713	24.15
