Data from HighRes_H2D2_15_04_11_07_2024_HR4C61891__99__15-05-44-342.txt Node

Date: Thu Nov 07 15:05:44 EST 2024
User: crc00042
Spectrometer: HR4C6189
Trigger mode: 4
Integration Time (sec): 1.000000E-1
Scans to average: 1
Electric dark correction enabled: true
Nonlinearity correction enabled: false
Boxcar width: 0
XAxis mode: Wavelengths
Number of Pixels in Spectrum: 3648
>>>>>Begin Spectral Data<<<<<
639.567	-53.54
639.602	-53.54
639.636	-53.54
639.67	-48.54
639.704	-34.54
639.738	-10.54
639.773	-1.54
639.807	-6.54
639.841	-0.54
639.875	2.46
639.909	7.46
639.943	-1.54
639.978	3.46
640.012	-2.54
640.046	1.46
640.08	0.46
640.114	-0.54
640.148	8.46
640.182	-17.54
640.217	-6.54
640.251	9.46
640.285	11.46
640.319	-6.54
640.353	0.46
640.387	7.46
640.421	-3.54
640.455	-3.54
640.49	-8.54
640.524	-4.54
640.558	3.46
640.592	11.46
640.626	-4.54
640.66	4.46
640.694	-9.54
640.728	-1.54
640.762	3.46
640.796	5.46
640.83	2.46
640.865	-12.54
640.899	-19.54
640.933	-8.54
640.967	-3.54
641.001	0.46
641.035	5.46
641.069	6.46
641.103	-7.54
641.137	-9.54
641.171	-3.54
641.205	10.46
641.239	11.46
641.273	8.46
641.307	2.46
641.341	-9.54
641.375	-3.54
641.409	-10.54
641.443	-9.54
641.477	2.46
641.511	5.46
641.545	9.46
641.579	-0.54
641.614	5.46
641.648	20.46
641.682	0.46
641.716	-6.54
641.75	2.46
641.784	-7.54
641.818	0.46
641.852	12.46
641.886	-17.54
641.919	18.46
641.953	7.46
641.987	-5.54
642.021	1.46
642.055	11.46
642.089	-5.54
642.123	-10.54
642.157	-20.54
642.191	-2.54
642.225	5.46
642.259	-10.54
642.293	-9.54
642.327	-25.54
642.361	7.46
642.395	14.46
642.429	18.46
642.463	-4.54
642.497	15.46
642.531	-5.54
642.565	4.46
642.599	3.46
642.633	-8.54
642.666	-1.54
642.7	5.46
642.734	7.46
642.768	-0.54
642.802	-2.54
642.836	16.46
642.87	-8.54
642.904	-5.54
642.938	8.46
642.972	-5.54
643.005	6.46
643.039	14.46
643.073	15.46
643.107	4.46
643.141	-11.54
643.175	-7.54
643.209	-9.54
643.243	1.46
643.276	-6.54
643.31	-8.54
643.344	-0.54
643.378	7.46
643.412	11.46
643.446	6.46
643.48	-6.54
643.513	9.46
643.547	-7.54
643.581	-9.54
643.615	-10.54
643.649	1.46
643.683	7.46
643.716	8.46
643.75	-14.54
643.784	-12.54
643.818	-0.54
643.852	-11.54
643.886	3.46
643.919	17.46
643.953	8.46
643.987	8.46
644.021	14.46
644.055	14.46
644.088	3.46
644.122	1.46
644.156	-5.54
644.19	15.46
644.224	-1.54
644.257	3.46
644.291	8.46
644.325	4.46
644.359	-5.54
644.392	11.46
644.426	15.46
644.46	-2.54
644.494	0.46
644.527	-6.54
644.561	-5.54
644.595	-11.54
644.629	-3.54
644.662	1.46
644.696	26.46
644.73	15.46
644.764	-3.54
644.797	-3.54
644.831	8.46
644.865	23.46
644.899	-2.54
644.932	22.46
644.966	3.46
645	12.46
645.033	14.46
645.067	15.46
645.101	-8.54
645.135	-1.54
645.168	-0.54
645.202	-17.54
645.236	-7.54
645.269	10.46
645.303	-9.54
645.337	-18.54
645.37	-8.54
645.404	5.46
645.438	-5.54
645.471	-8.54
645.505	6.46
645.539	1.46
645.572	-7.54
645.606	-2.54
645.64	16.46
645.673	6.46
645.707	19.46
645.741	-2.54
645.774	-12.54
645.808	9.46
645.842	-5.54
645.875	-1.54
645.909	-9.54
645.943	-3.54
645.976	-1.54
646.01	4.46
646.043	13.46
646.077	12.46
646.111	11.46
646.144	12.46
646.178	-0.54
646.212	-8.54
646.245	-3.54
646.279	-0.54
646.312	2.46
646.346	21.46
646.38	-7.54
646.413	-1.54
646.447	20.46
646.48	9.46
646.514	3.46
646.547	-22.54
646.581	-23.54
646.615	-17.54
646.648	-9.54
646.682	-8.54
646.715	-3.54
646.749	-4.54
646.782	3.46
646.816	1.46
646.85	10.46
646.883	3.46
646.917	7.46
646.95	4.46
646.984	8.46
647.017	5.46
647.051	2.46
647.084	2.46
647.118	-12.54
647.151	2.46
647.185	1.46
647.218	-4.54
647.252	10.46
647.285	-9.54
647.319	7.46
647.353	11.46
647.386	19.46
647.42	13.46
647.453	22.46
647.487	-2.54
647.52	10.46
647.553	-0.54
647.587	5.46
647.62	3.46
647.654	1.46
647.687	1.46
647.721	14.46
647.754	-0.54
647.788	-9.54
647.821	-7.54
647.855	22.46
647.888	-1.54
647.922	0.46
647.955	-1.54
647.989	0.46
648.022	12.46
648.055	5.46
648.089	-5.54
648.122	-1.54
648.156	5.46
648.189	4.46
648.223	3.46
648.256	10.46
648.29	19.46
648.323	1.46
648.356	11.46
648.39	4.46
648.423	18.46
648.457	-8.54
648.49	22.46
648.523	4.46
648.557	-6.54
648.59	8.46
648.624	-1.54
648.657	6.46
648.69	-4.54
648.724	1.46
648.757	14.46
648.791	-0.54
648.824	8.46
648.857	8.46
648.891	2.46
648.924	3.46
648.957	23.46
648.991	-0.54
649.024	22.46
649.057	-0.54
649.091	-9.54
649.124	3.46
649.158	8.46
649.191	14.46
649.224	6.46
649.258	15.46
649.291	5.46
649.324	-7.54
649.358	6.46
649.391	3.46
649.424	3.46
649.458	-13.54
649.491	0.46
649.524	-6.54
649.557	-16.54
649.591	-13.54
649.624	10.46
649.657	-12.54
649.691	-1.54
649.724	2.46
649.757	10.46
649.791	-2.54
649.824	24.46
649.857	9.46
649.89	1.46
649.924	-24.54
649.957	-4.54
649.99	-13.54
650.023	-5.54
650.057	10.46
650.09	-3.54
650.123	0.46
650.157	11.46
650.19	15.46
650.223	-5.54
650.256	-11.54
650.29	-5.54
650.323	0.46
650.356	2.46
650.389	-5.54
650.423	-22.54
650.456	-14.54
650.489	4.46
650.522	3.46
650.555	17.46
650.589	20.46
650.622	12.46
650.655	14.46
650.688	8.46
650.721	-3.54
650.755	-15.54
650.788	5.46
650.821	0.46
650.854	-2.54
650.887	7.46
650.921	-0.54
650.954	-13.54
650.987	4.46
651.02	1.46
651.053	-8.54
651.087	-5.54
651.12	26.46
651.153	7.46
651.186	-12.54
651.219	-5.54
651.252	11.46
651.286	10.46
651.319	-6.54
651.352	-11.54
651.385	0.46
651.418	-7.54
651.451	12.46
651.484	5.46
651.518	-5.54
651.551	15.46
651.584	7.46
651.617	4.46
651.65	-0.54
651.683	15.46
651.716	-1.54
651.749	-15.54
651.783	3.46
651.816	10.46
651.849	19.46
651.882	-3.54
651.915	-25.54
651.948	-6.54
651.981	2.46
652.014	-5.54
652.047	0.46
652.08	-10.54
652.114	7.46
652.147	-9.54
652.18	7.46
652.213	34.46
652.246	7.46
652.279	-15.54
652.312	14.46
652.345	-2.54
652.378	7.46
652.411	15.46
652.444	-6.54
652.477	6.46
652.51	-11.54
652.543	-13.54
652.576	10.46
652.609	-18.54
652.642	7.46
652.675	15.46
652.709	10.46
652.742	8.46
652.775	7.46
652.808	4.46
652.841	11.46
652.874	-5.54
652.907	-1.54
652.94	2.46
652.973	-5.54
653.006	-8.54
653.039	-4.54
653.072	-2.54
653.105	0.46
653.138	-10.54
653.171	-4.54
653.204	-3.54
653.237	-5.54
653.27	6.46
653.303	2.46
653.336	7.46
653.368	-7.54
653.401	-4.54
653.434	0.46
653.467	0.46
653.5	-20.54
653.533	-12.54
653.566	10.46
653.599	-7.54
653.632	1.46
653.665	8.46
653.698	-6.54
653.731	-8.54
653.764	-0.54
653.797	5.46
653.83	13.46
653.863	11.46
653.896	-4.54
653.929	8.46
653.961	11.46
653.994	2.46
654.027	-22.54
654.06	-1.54
654.093	0.46
654.126	-7.54
654.159	-6.54
654.192	1.46
654.225	8.46
654.258	-10.54
654.29	0.46
654.323	8.46
654.356	-6.54
654.389	13.46
654.422	-4.54
654.455	-2.54
654.488	-6.54
654.521	-14.54
654.553	-8.54
654.586	-10.54
654.619	-4.54
654.652	7.46
654.685	15.46
654.718	4.46
654.751	7.46
654.783	2.46
654.816	16.46
654.849	-9.54
654.882	-19.54
654.915	-18.54
654.948	-16.54
654.98	-19.54
655.013	1.46
655.046	0.46
655.079	-9.54
655.112	-2.54
655.144	-6.54
655.177	5.46
655.21	14.46
655.243	12.46
655.276	7.46
655.308	-3.54
655.341	-8.54
655.374	4.46
655.407	-5.54
655.44	1.46
655.472	12.46
655.505	4.46
655.538	15.46
655.571	11.46
655.603	11.46
655.636	-2.54
655.669	-1.54
655.702	-7.54
655.734	-0.54
655.767	2.46
655.8	11.46
655.833	5.46
655.865	15.46
655.898	2.46
655.931	18.46
655.964	6.46
655.996	13.46
656.029	39.46
656.062	20.46
656.095	38.46
656.127	77.46
656.16	220.46
656.193	626.46
656.225	976.46
656.258	579.46
656.291	221.46
656.324	182.46
656.356	323.46
656.389	773.46
656.422	687.46
656.454	240.46
656.487	84.46
656.52	41.46
656.552	11.46
656.585	11.46
656.618	1.46
656.65	5.46
656.683	-8.54
656.716	19.46
656.748	3.46
656.781	-12.54
656.814	-16.54
656.846	7.46
656.879	0.46
656.912	0.46
656.944	-7.54
656.977	1.46
657.01	7.46
657.042	10.46
657.075	12.46
657.108	-2.54
657.14	4.46
657.173	6.46
657.205	14.46
657.238	-9.54
657.271	-2.54
657.303	-11.54
657.336	7.46
657.369	-8.54
657.401	-0.54
657.434	7.46
657.466	0.46
657.499	3.46
657.532	-1.54
657.564	-7.54
657.597	-12.54
657.629	7.46
657.662	0.46
657.694	-0.54
657.727	-14.54
657.76	10.46
657.792	-13.54
657.825	8.46
657.857	-4.54
657.89	-12.54
657.922	5.46
657.955	9.46
657.987	-4.54
658.02	16.46
658.053	8.46
658.085	9.46
658.118	-2.54
658.15	14.46
658.183	20.46
658.215	-5.54
658.248	3.46
658.28	11.46
658.313	14.46
658.345	8.46
658.378	-2.54
658.41	8.46
658.443	10.46
658.475	6.46
658.508	1.46
658.54	12.46
658.573	0.46
658.605	-2.54
658.638	-22.54
658.67	-8.54
658.703	8.46
658.735	-19.54
658.768	-2.54
658.8	-16.54
658.833	-4.54
658.865	1.46
658.898	-1.54
658.93	4.46
658.963	-4.54
658.995	-5.54
659.028	1.46
659.06	-1.54
659.092	-3.54
659.125	10.46
659.157	16.46
659.19	-23.54
659.222	-7.54
659.255	2.46
659.287	-2.54
659.32	-11.54
659.352	-1.54
659.384	10.46
659.417	-6.54
659.449	5.46
659.482	-3.54
659.514	-18.54
659.546	-10.54
659.579	-11.54
659.611	7.46
659.644	-3.54
659.676	-21.54
659.708	-6.54
659.741	-5.54
659.773	-5.54
659.806	8.46
659.838	-12.54
659.87	5.46
659.903	-2.54
659.935	16.46
659.967	-4.54
660	1.46
660.032	-28.54
660.065	1.46
660.097	-9.54
660.129	13.46
660.162	-3.54
660.194	1.46
660.226	-7.54
660.259	-1.54
660.291	-11.54
660.323	4.46
660.356	-17.54
660.388	-19.54
660.42	-17.54
660.453	9.46
660.485	9.46
660.517	6.46
660.55	10.46
660.582	16.46
660.614	0.46
660.647	9.46
660.679	7.46
660.711	22.46
660.743	3.46
660.776	-7.54
660.808	-13.54
660.84	-11.54
660.873	-10.54
660.905	3.46
660.937	-5.54
660.969	0.46
661.002	6.46
661.034	12.46
661.066	-8.54
661.099	2.46
661.131	8.46
661.163	-4.54
661.195	7.46
661.228	15.46
661.26	-4.54
661.292	4.46
661.324	-4.54
661.357	4.46
661.389	5.46
661.421	17.46
661.453	3.46
661.485	14.46
661.518	2.46
661.55	-8.54
661.582	-22.54
661.614	-8.54
661.647	-3.54
661.679	4.46
661.711	-7.54
661.743	-4.54
661.775	7.46
661.808	32.46
661.84	-9.54
661.872	-4.54
661.904	-22.54
661.936	-1.54
661.969	14.46
662.001	-0.54
662.033	5.46
662.065	-21.54
662.097	17.46
662.129	9.46
662.162	3.46
662.194	1.46
662.226	-10.54
662.258	-2.54
662.29	-0.54
662.322	-19.54
662.355	-16.54
662.387	12.46
662.419	-7.54
662.451	2.46
662.483	4.46
662.515	-10.54
662.547	-16.54
662.58	-7.54
662.612	-15.54
662.644	-9.54
662.676	7.46
662.708	22.46
662.74	-7.54
662.772	13.46
662.804	10.46
662.836	4.46
662.869	-1.54
662.901	10.46
662.933	-19.54
662.965	0.46
662.997	10.46
663.029	-7.54
663.061	0.46
663.093	4.46
663.125	7.46
663.157	12.46
663.189	4.46
663.221	-0.54
663.254	15.46
663.286	13.46
663.318	-6.54
663.35	-5.54
663.382	-3.54
663.414	-3.54
663.446	5.46
663.478	-4.54
663.51	35.46
663.542	-6.54
663.574	2.46
663.606	8.46
663.638	-0.54
663.67	-12.54
663.702	-3.54
663.734	10.46
663.766	5.46
663.798	-8.54
663.83	11.46
663.862	8.46
663.894	8.46
663.926	-6.54
663.958	14.46
663.99	14.46
664.022	-1.54
664.054	-3.54
664.086	-14.54
664.118	-11.54
664.15	-20.54
664.182	-2.54
664.214	3.46
664.246	12.46
664.278	-12.54
664.31	-7.54
664.342	-7.54
664.374	-9.54
664.406	3.46
664.438	6.46
664.47	5.46
664.502	-8.54
664.534	-5.54
664.566	9.46
664.598	3.46
664.63	-9.54
664.662	-3.54
664.693	-11.54
664.725	-6.54
664.757	-12.54
664.789	-7.54
664.821	6.46
664.853	11.46
664.885	4.46
664.917	-4.54
664.949	14.46
664.981	8.46
665.013	13.46
665.045	-5.54
665.076	-11.54
665.108	4.46
665.14	-0.54
665.172	-6.54
665.204	-15.54
665.236	-4.54
665.268	3.46
665.3	-5.54
665.331	-2.54
665.363	-3.54
665.395	-16.54
665.427	0.46
665.459	8.46
665.491	3.46
665.523	-4.54
665.555	4.46
665.586	7.46
665.618	-10.54
665.65	-3.54
665.682	7.46
665.714	9.46
665.746	-13.54
665.777	-18.54
665.809	4.46
665.841	8.46
665.873	4.46
665.905	3.46
665.937	14.46
665.968	11.46
666	11.46
666.032	-0.54
666.064	-7.54
666.096	-15.54
666.127	11.46
666.159	-2.54
666.191	9.46
666.223	-13.54
666.255	4.46
666.286	-7.54
666.318	-8.54
666.35	-8.54
666.382	1.46
666.413	-6.54
666.445	-17.54
666.477	1.46
666.509	6.46
666.54	-10.54
666.572	-4.54
666.604	15.46
666.636	-7.54
666.667	17.46
666.699	29.46
666.731	-6.54
666.763	-16.54
666.794	0.46
666.826	1.46
666.858	-22.54
666.89	-5.54
666.921	1.46
666.953	5.46
666.985	23.46
667.017	-0.54
667.048	-0.54
667.08	3.46
667.112	-2.54
667.143	-3.54
667.175	-8.54
667.207	7.46
667.238	10.46
667.27	7.46
667.302	2.46
667.334	11.46
667.365	24.46
667.397	11.46
667.429	-9.54
667.46	8.46
667.492	11.46
667.524	-17.54
667.555	-15.54
667.587	-8.54
667.619	-0.54
667.65	-28.54
667.682	-8.54
667.714	16.46
667.745	4.46
667.777	4.46
667.808	7.46
667.84	18.46
667.872	-12.54
667.903	20.46
667.935	0.46
667.967	-2.54
667.998	-8.54
668.03	-7.54
668.061	1.46
668.093	-5.54
668.125	-15.54
668.156	6.46
668.188	6.46
668.22	-0.54
668.251	16.46
668.283	0.46
668.314	14.46
668.346	-9.54
668.377	-3.54
668.409	-20.54
668.441	18.46
668.472	10.46
668.504	20.46
668.535	6.46
668.567	0.46
668.599	-2.54
668.63	7.46
668.662	4.46
668.693	1.46
668.725	10.46
668.756	12.46
668.788	-15.54
668.819	-1.54
668.851	11.46
668.882	-7.54
668.914	6.46
668.946	2.46
668.977	2.46
669.009	9.46
669.04	-22.54
669.072	-10.54
669.103	-6.54
669.135	-10.54
669.166	-1.54
669.198	-5.54
669.229	1.46
669.261	-3.54
669.292	-3.54
669.324	13.46
669.355	-5.54
669.387	-11.54
669.418	-2.54
669.45	-3.54
669.481	2.46
669.513	14.46
669.544	-2.54
669.576	1.46
669.607	10.46
669.639	17.46
669.67	-3.54
669.701	15.46
669.733	2.46
669.764	-6.54
669.796	-16.54
669.827	5.46
669.859	-9.54
669.89	9.46
669.922	6.46
669.953	5.46
669.985	-0.54
670.016	6.46
670.047	10.46
670.079	9.46
670.11	1.46
670.142	-5.54
670.173	-10.54
670.204	-0.54
670.236	-2.54
670.267	-6.54
670.299	6.46
670.33	7.46
670.362	-3.54
670.393	-5.54
670.424	14.46
670.456	-20.54
670.487	-9.54
670.518	0.46
670.55	-0.54
670.581	-9.54
670.613	-9.54
670.644	-20.54
670.675	-2.54
670.707	-0.54
670.738	10.46
670.769	-9.54
670.801	-19.54
670.832	-5.54
670.864	-9.54
670.895	7.46
670.926	-2.54
670.958	-2.54
670.989	-4.54
671.02	-9.54
671.052	4.46
671.083	1.46
671.114	-3.54
671.146	15.46
671.177	-7.54
671.208	-6.54
671.24	-19.54
671.271	-8.54
671.302	-2.54
671.333	7.46
671.365	5.46
671.396	3.46
671.427	0.46
671.459	13.46
671.49	-0.54
671.521	8.46
671.553	-3.54
671.584	12.46
671.615	-11.54
671.646	1.46
671.678	4.46
671.709	-12.54
671.74	-24.54
671.771	-8.54
671.803	6.46
671.834	-8.54
671.865	6.46
671.896	-9.54
671.928	-12.54
671.959	-6.54
671.99	-2.54
672.021	0.46
672.053	-4.54
672.084	-3.54
672.115	8.46
672.146	3.46
672.178	8.46
672.209	-4.54
672.24	4.46
672.271	17.46
672.303	3.46
672.334	1.46
672.365	-1.54
672.396	-3.54
672.427	-7.54
672.459	15.46
672.49	22.46
672.521	7.46
672.552	9.46
672.583	4.46
672.615	4.46
672.646	9.46
672.677	-4.54
672.708	-8.54
672.739	6.46
672.77	18.46
672.802	2.46
672.833	-5.54
672.864	-8.54
672.895	-8.54
672.926	3.46
672.957	-10.54
672.989	0.46
673.02	-3.54
673.051	-23.54
673.082	14.46
673.113	3.46
673.144	9.46
673.175	-2.54
673.206	7.46
673.238	-2.54
673.269	-17.54
673.3	-5.54
673.331	1.46
673.362	-4.54
673.393	-7.54
673.424	-2.54
673.455	19.46
673.487	-7.54
673.518	3.46
673.549	-0.54
673.58	-13.54
673.611	6.46
673.642	3.46
673.673	-7.54
673.704	4.46
673.735	8.46
673.766	5.46
673.797	2.46
673.828	-4.54
673.86	-6.54
673.891	-16.54
673.922	-25.54
673.953	-18.54
673.984	-17.54
674.015	1.46
674.046	1.46
674.077	2.46
674.108	-1.54
674.139	-4.54
674.17	-5.54
674.201	-4.54
674.232	-8.54
674.263	-27.54
674.294	-8.54
674.325	-13.54
674.356	-12.54
674.387	15.46
674.418	-3.54
674.449	-5.54
674.48	-7.54
674.511	0.46
674.542	4.46
674.573	-2.54
674.604	8.46
674.635	-9.54
674.666	1.46
674.697	4.46
674.728	-1.54
674.759	-9.54
674.79	-9.54
674.821	14.46
674.852	-2.54
674.883	-17.54
674.914	-21.54
674.945	3.46
674.976	7.46
675.007	-12.54
675.038	-19.54
675.069	-28.54
675.1	6.46
675.131	-12.54
675.162	-27.54
675.193	0.46
675.224	-5.54
675.254	8.46
675.285	11.46
675.316	33.46
675.347	-2.54
675.378	-12.54
675.409	-25.54
675.44	3.46
675.471	4.46
675.502	-18.54
675.533	1.46
675.564	-2.54
675.595	1.46
675.625	11.46
675.656	15.46
675.687	-10.54
675.718	-5.54
675.749	-11.54
675.78	-1.54
675.811	-9.54
675.842	-15.54
675.873	7.46
675.903	1.46
675.934	-5.54
675.965	-1.54
675.996	-6.54
676.027	14.46
676.058	9.46
676.089	-8.54
676.119	0.46
676.15	10.46
676.181	7.46
676.212	3.46
676.243	24.46
676.274	-12.54
676.304	20.46
676.335	-20.54
676.366	1.46
676.397	-18.54
676.428	-5.54
676.459	3.46
676.489	-3.54
676.52	10.46
676.551	2.46
676.582	2.46
676.613	2.46
676.643	-10.54
676.674	-9.54
676.705	-17.54
676.736	-1.54
676.767	13.46
676.797	4.46
676.828	0.46
676.859	-13.54
676.89	7.46
676.92	4.46
676.951	7.46
676.982	8.46
677.013	-0.54
677.044	25.46
677.074	1.46
677.105	-2.54
677.136	7.46
677.167	-1.54
677.197	-3.54
677.228	5.46
677.259	-24.54
677.289	-11.54
677.32	-11.54
677.351	-6.54
677.382	2.46
677.412	3.46
677.443	-8.54
677.474	-5.54
677.505	-11.54
677.535	-5.54
677.566	-0.54
677.597	-25.54
677.627	-2.54
677.658	-15.54
677.689	-7.54
677.72	-6.54
677.75	0.46
677.781	-8.54
677.812	0.46
677.842	2.46
677.873	6.46
677.904	2.46
677.934	-3.54
677.965	-8.54
677.996	-10.54
678.026	4.46
678.057	12.46
678.088	2.46
678.118	-7.54
678.149	-16.54
678.18	-8.54
678.21	0.46
678.241	7.46
678.272	-7.54
678.302	4.46
678.333	-8.54
678.363	1.46
678.394	2.46
678.425	7.46
678.455	6.46
678.486	8.46
678.517	-0.54
678.547	9.46
678.578	12.46
678.608	1.46
678.639	11.46
678.67	8.46
678.7	22.46
678.731	1.46
678.761	-5.54
678.792	10.46
678.823	1.46
678.853	5.46
678.884	-19.54
678.914	5.46
678.945	9.46
678.975	3.46
679.006	7.46
679.037	-5.54
679.067	18.46
679.098	-0.54
679.128	-0.54
679.159	-14.54
679.189	8.46
679.22	-1.54
679.25	-0.54
679.281	5.46
679.312	-8.54
679.342	2.46
679.373	30.46
679.403	14.46
679.434	27.46
679.464	-8.54
679.495	-1.54
679.525	17.46
679.556	0.46
679.586	-4.54
679.617	10.46
679.647	9.46
679.678	13.46
679.708	2.46
679.739	1.46
679.769	-4.54
679.8	0.46
679.83	6.46
679.861	10.46
679.891	-4.54
679.922	-10.54
679.952	3.46
679.983	0.46
680.013	5.46
680.044	-14.54
680.074	-13.54
680.105	5.46
680.135	5.46
680.165	10.46
680.196	2.46
680.226	4.46
680.257	-8.54
680.287	-9.54
680.318	-5.54
680.348	-11.54
680.379	3.46
680.409	7.46
680.439	-7.54
680.47	-3.54
680.5	-8.54
680.531	3.46
680.561	11.46
680.592	3.46
680.622	14.46
680.652	7.46
680.683	3.46
680.713	-8.54
680.744	-2.54
680.774	-14.54
680.804	17.46
680.835	-10.54
680.865	-8.54
680.896	8.46
680.926	18.46
680.956	7.46
680.987	6.46
681.017	6.46
681.047	2.46
681.078	-10.54
681.108	3.46
681.139	-7.54
681.169	2.46
681.199	-2.54
681.23	-5.54
681.26	15.46
681.29	6.46
681.321	-6.54
681.351	-0.54
681.381	-11.54
681.412	16.46
681.442	-2.54
681.472	4.46
681.503	12.46
681.533	1.46
681.563	-6.54
681.594	-6.54
681.624	11.46
681.654	7.46
681.685	7.46
681.715	-9.54
681.745	8.46
681.775	3.46
681.806	8.46
681.836	-6.54
681.866	-4.54
681.897	-5.54
681.927	-8.54
681.957	-17.54
681.987	-3.54
682.018	1.46
682.048	11.46
682.078	12.46
682.109	21.46
682.139	13.46
682.169	14.46
682.199	-0.54
682.23	-6.54
682.26	8.46
682.29	-0.54
682.32	-2.54
682.351	-2.54
682.381	-0.54
682.411	-17.54
682.441	-3.54
682.472	-9.54
682.502	-1.54
