Data from HighRes_H2D2_15_04_11_07_2024_HR4C61891__88__15-05-43-242.txt Node

Date: Thu Nov 07 15:05:43 EST 2024
User: crc00042
Spectrometer: HR4C6189
Trigger mode: 4
Integration Time (sec): 1.000000E-1
Scans to average: 1
Electric dark correction enabled: true
Nonlinearity correction enabled: false
Boxcar width: 0
XAxis mode: Wavelengths
Number of Pixels in Spectrum: 3648
>>>>>Begin Spectral Data<<<<<
639.567	-39.62
639.602	-39.62
639.636	-39.62
639.67	-36.62
639.704	-24.62
639.738	-0.62
639.773	4.38
639.807	-3.62
639.841	4.38
639.875	4.38
639.909	-11.62
639.943	-15.62
639.978	-0.62
640.012	6.38
640.046	4.38
640.08	8.38
640.114	6.38
640.148	-6.62
640.182	-7.62
640.217	12.38
640.251	20.38
640.285	12.38
640.319	-18.62
640.353	-10.62
640.387	7.38
640.421	-15.62
640.455	4.38
640.49	-3.62
640.524	-6.62
640.558	4.38
640.592	-5.62
640.626	5.38
640.66	8.38
640.694	9.38
640.728	18.38
640.762	17.38
640.796	12.38
640.83	15.38
640.865	-7.62
640.899	-2.62
640.933	7.38
640.967	0.38
641.001	-0.62
641.035	-4.62
641.069	-4.62
641.103	-0.62
641.137	12.38
641.171	-14.62
641.205	-2.62
641.239	9.38
641.273	15.38
641.307	7.38
641.341	10.38
641.375	-2.62
641.409	-10.62
641.443	4.38
641.477	6.38
641.511	-0.62
641.545	7.38
641.579	-3.62
641.614	-1.62
641.648	-8.62
641.682	-9.62
641.716	-0.62
641.75	20.38
641.784	9.38
641.818	1.38
641.852	8.38
641.886	-4.62
641.919	19.38
641.953	4.38
641.987	3.38
642.021	8.38
642.055	-9.62
642.089	1.38
642.123	-17.62
642.157	-5.62
642.191	-14.62
642.225	3.38
642.259	-0.62
642.293	15.38
642.327	2.38
642.361	8.38
642.395	21.38
642.429	2.38
642.463	-2.62
642.497	27.38
642.531	-6.62
642.565	-20.62
642.599	11.38
642.633	-5.62
642.666	9.38
642.7	16.38
642.734	8.38
642.768	-9.62
642.802	10.38
642.836	1.38
642.87	7.38
642.904	11.38
642.938	18.38
642.972	0.38
643.005	-4.62
643.039	24.38
643.073	1.38
643.107	12.38
643.141	1.38
643.175	5.38
643.209	-15.62
643.243	7.38
643.276	8.38
643.31	2.38
643.344	-1.62
643.378	2.38
643.412	13.38
643.446	-14.62
643.48	-0.62
643.513	0.38
643.547	0.38
643.581	3.38
643.615	8.38
643.649	-1.62
643.683	9.38
643.716	2.38
643.75	11.38
643.784	-8.62
643.818	2.38
643.852	-4.62
643.886	6.38
643.919	1.38
643.953	-8.62
643.987	-10.62
644.021	16.38
644.055	7.38
644.088	-1.62
644.122	-1.62
644.156	15.38
644.19	1.38
644.224	1.38
644.257	-0.62
644.291	4.38
644.325	-1.62
644.359	-5.62
644.392	12.38
644.426	5.38
644.46	-12.62
644.494	4.38
644.527	8.38
644.561	8.38
644.595	1.38
644.629	-3.62
644.662	-13.62
644.696	6.38
644.73	6.38
644.764	8.38
644.797	7.38
644.831	8.38
644.865	5.38
644.899	0.38
644.932	29.38
644.966	-9.62
645	10.38
645.033	10.38
645.067	6.38
645.101	13.38
645.135	-5.62
645.168	5.38
645.202	2.38
645.236	-11.62
645.269	3.38
645.303	1.38
645.337	-11.62
645.37	0.38
645.404	-0.62
645.438	-2.62
645.471	-17.62
645.505	7.38
645.539	-6.62
645.572	-6.62
645.606	13.38
645.64	-7.62
645.673	-6.62
645.707	27.38
645.741	6.38
645.774	10.38
645.808	4.38
645.842	-4.62
645.875	16.38
645.909	24.38
645.943	-0.62
645.976	-5.62
646.01	5.38
646.043	15.38
646.077	9.38
646.111	4.38
646.144	11.38
646.178	28.38
646.212	-15.62
646.245	-11.62
646.279	0.38
646.312	-10.62
646.346	13.38
646.38	14.38
646.413	9.38
646.447	-3.62
646.48	2.38
646.514	7.38
646.547	-16.62
646.581	4.38
646.615	-14.62
646.648	-20.62
646.682	-1.62
646.715	6.38
646.749	21.38
646.782	-12.62
646.816	9.38
646.85	14.38
646.883	-17.62
646.917	-9.62
646.95	6.38
646.984	-5.62
647.017	-15.62
647.051	4.38
647.084	-0.62
647.118	-13.62
647.151	-3.62
647.185	8.38
647.218	-11.62
647.252	-6.62
647.285	-15.62
647.319	-2.62
647.353	-0.62
647.386	27.38
647.42	8.38
647.453	-4.62
647.487	13.38
647.52	7.38
647.553	5.38
647.587	12.38
647.62	-6.62
647.654	-2.62
647.687	-3.62
647.721	18.38
647.754	5.38
647.788	-1.62
647.821	-20.62
647.855	1.38
647.888	-2.62
647.922	1.38
647.955	13.38
647.989	-11.62
648.022	-3.62
648.055	12.38
648.089	-5.62
648.122	29.38
648.156	0.38
648.189	5.38
648.223	8.38
648.256	18.38
648.29	22.38
648.323	4.38
648.356	15.38
648.39	8.38
648.423	14.38
648.457	0.38
648.49	0.38
648.523	3.38
648.557	-6.62
648.59	3.38
648.624	-4.62
648.657	-7.62
648.69	32.38
648.724	10.38
648.757	-2.62
648.791	11.38
648.824	-2.62
648.857	10.38
648.891	7.38
648.924	0.38
648.957	11.38
648.991	-4.62
649.024	14.38
649.057	-6.62
649.091	-2.62
649.124	10.38
649.158	10.38
649.191	15.38
649.224	4.38
649.258	15.38
649.291	-4.62
649.324	-3.62
649.358	-3.62
649.391	1.38
649.424	10.38
649.458	9.38
649.491	15.38
649.524	-0.62
649.557	-8.62
649.591	-10.62
649.624	15.38
649.657	-6.62
649.691	10.38
649.724	5.38
649.757	-9.62
649.791	-8.62
649.824	5.38
649.857	13.38
649.89	7.38
649.924	-8.62
649.957	5.38
649.99	-15.62
650.023	12.38
650.057	-3.62
650.09	8.38
650.123	2.38
650.157	3.38
650.19	10.38
650.223	-4.62
650.256	-2.62
650.29	-10.62
650.323	3.38
650.356	-6.62
650.389	8.38
650.423	1.38
650.456	0.38
650.489	-4.62
650.522	2.38
650.555	11.38
650.589	14.38
650.622	5.38
650.655	1.38
650.688	10.38
650.721	9.38
650.755	2.38
650.788	7.38
650.821	-16.62
650.854	-16.62
650.887	-5.62
650.921	-7.62
650.954	-15.62
650.987	-6.62
651.02	-7.62
651.053	-10.62
651.087	-13.62
651.12	19.38
651.153	7.38
651.186	3.38
651.219	-7.62
651.252	2.38
651.286	8.38
651.319	-0.62
651.352	-8.62
651.385	-6.62
651.418	-3.62
651.451	13.38
651.484	-2.62
651.518	-0.62
651.551	19.38
651.584	-14.62
651.617	20.38
651.65	9.38
651.683	21.38
651.716	4.38
651.749	-17.62
651.783	4.38
651.816	4.38
651.849	12.38
651.882	10.38
651.915	-0.62
651.948	0.38
651.981	-14.62
652.014	-21.62
652.047	-6.62
652.08	-19.62
652.114	-12.62
652.147	-3.62
652.18	16.38
652.213	21.38
652.246	1.38
652.279	-6.62
652.312	0.38
652.345	5.38
652.378	14.38
652.411	25.38
652.444	13.38
652.477	6.38
652.51	-14.62
652.543	-23.62
652.576	11.38
652.609	-5.62
652.642	0.38
652.675	8.38
652.709	-9.62
652.742	10.38
652.775	0.38
652.808	8.38
652.841	-8.62
652.874	1.38
652.907	9.38
652.94	2.38
652.973	-16.62
653.006	-7.62
653.039	-11.62
653.072	-3.62
653.105	12.38
653.138	10.38
653.171	1.38
653.204	4.38
653.237	1.38
653.27	2.38
653.303	9.38
653.336	7.38
653.368	-3.62
653.401	23.38
653.434	4.38
653.467	3.38
653.5	-17.62
653.533	-5.62
653.566	3.38
653.599	-5.62
653.632	2.38
653.665	9.38
653.698	-21.62
653.731	-10.62
653.764	13.38
653.797	10.38
653.83	1.38
653.863	5.38
653.896	-17.62
653.929	1.38
653.961	10.38
653.994	7.38
654.027	-23.62
654.06	-7.62
654.093	3.38
654.126	5.38
654.159	3.38
654.192	9.38
654.225	0.38
654.258	2.38
654.29	16.38
654.323	16.38
654.356	-3.62
654.389	9.38
654.422	1.38
654.455	-5.62
654.488	3.38
654.521	-0.62
654.553	-17.62
654.586	12.38
654.619	-6.62
654.652	-5.62
654.685	5.38
654.718	7.38
654.751	5.38
654.783	1.38
654.816	10.38
654.849	9.38
654.882	6.38
654.915	-17.62
654.948	1.38
654.98	2.38
655.013	2.38
655.046	-10.62
655.079	-7.62
655.112	-9.62
655.144	-3.62
655.177	4.38
655.21	8.38
655.243	20.38
655.276	12.38
655.308	-7.62
655.341	-16.62
655.374	5.38
655.407	5.38
655.44	-13.62
655.472	12.38
655.505	11.38
655.538	16.38
655.571	8.38
655.603	1.38
655.636	-1.62
655.669	3.38
655.702	17.38
655.734	-1.62
655.767	10.38
655.8	4.38
655.833	9.38
655.865	7.38
655.898	1.38
655.931	24.38
655.964	17.38
655.996	30.38
656.029	39.38
656.062	17.38
656.095	42.38
656.127	61.38
656.16	219.38
656.193	639.38
656.225	948.38
656.258	556.38
656.291	210.38
656.324	191.38
656.356	387.38
656.389	765.38
656.422	696.38
656.454	238.38
656.487	91.38
656.52	54.38
656.552	14.38
656.585	7.38
656.618	20.38
656.65	3.38
656.683	7.38
656.716	10.38
656.748	6.38
656.781	-1.62
656.814	0.38
656.846	19.38
656.879	7.38
656.912	14.38
656.944	-19.62
656.977	-10.62
657.01	-9.62
657.042	6.38
657.075	21.38
657.108	8.38
657.14	7.38
657.173	17.38
657.205	26.38
657.238	6.38
657.271	-18.62
657.303	-24.62
657.336	9.38
657.369	5.38
657.401	-0.62
657.434	-1.62
657.466	3.38
657.499	-0.62
657.532	1.38
657.564	22.38
657.597	7.38
657.629	21.38
657.662	-9.62
657.694	-2.62
657.727	-11.62
657.76	8.38
657.792	-20.62
657.825	-8.62
657.857	8.38
657.89	4.38
657.922	9.38
657.955	-8.62
657.987	0.38
658.02	17.38
658.053	5.38
658.085	-19.62
658.118	8.38
658.15	10.38
658.183	30.38
658.215	2.38
658.248	-5.62
658.28	0.38
658.313	20.38
658.345	27.38
658.378	-7.62
658.41	-0.62
658.443	16.38
658.475	3.38
658.508	1.38
658.54	-8.62
658.573	-17.62
658.605	5.38
658.638	-7.62
658.67	0.38
658.703	12.38
658.735	6.38
658.768	-0.62
658.8	-1.62
658.833	22.38
658.865	4.38
658.898	6.38
658.93	-8.62
658.963	-3.62
658.995	-22.62
659.028	9.38
659.06	4.38
659.092	-1.62
659.125	1.38
659.157	5.38
659.19	-17.62
659.222	3.38
659.255	9.38
659.287	-4.62
659.32	-1.62
659.352	-7.62
659.384	5.38
659.417	-1.62
659.449	-4.62
659.482	8.38
659.514	-2.62
659.546	-2.62
659.579	-8.62
659.611	9.38
659.644	7.38
659.676	-1.62
659.708	-12.62
659.741	0.38
659.773	1.38
659.806	8.38
659.838	-3.62
659.87	-1.62
659.903	3.38
659.935	2.38
659.967	4.38
660	10.38
660.032	-4.62
660.065	5.38
660.097	6.38
660.129	11.38
660.162	-13.62
660.194	7.38
660.226	4.38
660.259	4.38
660.291	-3.62
660.323	-0.62
660.356	-2.62
660.388	-12.62
660.42	0.38
660.453	0.38
660.485	-2.62
660.517	8.38
660.55	8.38
660.582	4.38
660.614	5.38
660.647	-4.62
660.679	-9.62
660.711	3.38
660.743	-0.62
660.776	-3.62
660.808	-1.62
660.84	-4.62
660.873	-10.62
660.905	-2.62
660.937	-4.62
660.969	-4.62
661.002	-10.62
661.034	1.38
661.066	-1.62
661.099	13.38
661.131	18.38
661.163	9.38
661.195	-10.62
661.228	16.38
661.26	-17.62
661.292	-7.62
661.324	1.38
661.357	-1.62
661.389	2.38
661.421	10.38
661.453	11.38
661.485	15.38
661.518	20.38
661.55	-17.62
661.582	-9.62
661.614	5.38
661.647	-4.62
661.679	-7.62
661.711	-1.62
661.743	-9.62
661.775	-5.62
661.808	24.38
661.84	-11.62
661.872	6.38
661.904	7.38
661.936	6.38
661.969	-3.62
662.001	7.38
662.033	-4.62
662.065	7.38
662.097	1.38
662.129	4.38
662.162	-17.62
662.194	-3.62
662.226	5.38
662.258	8.38
662.29	11.38
662.322	6.38
662.355	-11.62
662.387	14.38
662.419	6.38
662.451	14.38
662.483	28.38
662.515	-2.62
662.547	-10.62
662.58	-16.62
662.612	-20.62
662.644	-9.62
662.676	-9.62
662.708	13.38
662.74	-3.62
662.772	-0.62
662.804	20.38
662.836	12.38
662.869	-2.62
662.901	-5.62
662.933	-6.62
662.965	14.38
662.997	15.38
663.029	-20.62
663.061	-3.62
663.093	10.38
663.125	-1.62
663.157	22.38
663.189	-1.62
663.221	11.38
663.254	-0.62
663.286	8.38
663.318	-7.62
663.35	-6.62
663.382	3.38
663.414	5.38
663.446	17.38
663.478	-23.62
663.51	16.38
663.542	-2.62
663.574	4.38
663.606	5.38
663.638	-6.62
663.67	-3.62
663.702	-2.62
663.734	-11.62
663.766	9.38
663.798	-0.62
663.83	5.38
663.862	-0.62
663.894	17.38
663.926	-6.62
663.958	-1.62
663.99	4.38
664.022	12.38
664.054	8.38
664.086	-6.62
664.118	-21.62
664.15	-12.62
664.182	-1.62
664.214	-2.62
664.246	17.38
664.278	-3.62
664.31	9.38
664.342	4.38
664.374	1.38
664.406	-24.62
664.438	-6.62
664.47	0.38
664.502	-12.62
664.534	-13.62
664.566	-7.62
664.598	16.38
664.63	-5.62
664.662	2.38
664.693	-8.62
664.725	-8.62
664.757	-8.62
664.789	2.38
664.821	11.38
664.853	7.38
664.885	-1.62
664.917	-3.62
664.949	15.38
664.981	27.38
665.013	7.38
665.045	-7.62
665.076	9.38
665.108	3.38
665.14	-16.62
665.172	-5.62
665.204	-8.62
665.236	17.38
665.268	8.38
665.3	-14.62
665.331	10.38
665.363	12.38
665.395	10.38
665.427	6.38
665.459	2.38
665.491	-1.62
665.523	12.38
665.555	4.38
665.586	5.38
665.618	-8.62
665.65	-8.62
665.682	14.38
665.714	19.38
665.746	6.38
665.777	-11.62
665.809	0.38
665.841	11.38
665.873	-20.62
665.905	9.38
665.937	9.38
665.968	-10.62
666	-8.62
666.032	7.38
666.064	-0.62
666.096	-10.62
666.127	-6.62
666.159	8.38
666.191	-4.62
666.223	-1.62
666.255	-3.62
666.286	0.38
666.318	-8.62
666.35	4.38
666.382	7.38
666.413	-1.62
666.445	-10.62
666.477	-17.62
666.509	-5.62
666.54	6.38
666.572	5.38
666.604	9.38
666.636	-6.62
666.667	19.38
666.699	16.38
666.731	3.38
666.763	-2.62
666.794	-2.62
666.826	-3.62
666.858	-5.62
666.89	13.38
666.921	5.38
666.953	-1.62
666.985	21.38
667.017	10.38
667.048	4.38
667.08	-0.62
667.112	-6.62
667.143	-22.62
667.175	13.38
667.207	-7.62
667.238	-11.62
667.27	-17.62
667.302	-3.62
667.334	-3.62
667.365	25.38
667.397	7.38
667.429	4.38
667.46	-3.62
667.492	6.38
667.524	-0.62
667.555	-4.62
667.587	1.38
667.619	-3.62
667.65	-6.62
667.682	24.38
667.714	6.38
667.745	-0.62
667.777	-1.62
667.808	1.38
667.84	20.38
667.872	5.38
667.903	19.38
667.935	-9.62
667.967	-7.62
667.998	-0.62
668.03	-4.62
668.061	2.38
668.093	1.38
668.125	5.38
668.156	0.38
668.188	2.38
668.22	-1.62
668.251	7.38
668.283	3.38
668.314	0.38
668.346	-23.62
668.377	2.38
668.409	-7.62
668.441	11.38
668.472	14.38
668.504	24.38
668.535	18.38
668.567	16.38
668.599	0.38
668.63	5.38
668.662	2.38
668.693	15.38
668.725	5.38
668.756	9.38
668.788	9.38
668.819	7.38
668.851	3.38
668.882	12.38
668.914	6.38
668.946	1.38
668.977	2.38
669.009	-21.62
669.04	-23.62
669.072	6.38
669.103	3.38
669.135	15.38
669.166	14.38
669.198	-3.62
669.229	7.38
669.261	-4.62
669.292	-1.62
669.324	9.38
669.355	12.38
669.387	7.38
669.418	12.38
669.45	-5.62
669.481	1.38
669.513	-5.62
669.544	8.38
669.576	8.38
669.607	6.38
669.639	16.38
669.67	3.38
669.701	12.38
669.733	-14.62
669.764	5.38
669.796	-12.62
669.827	-28.62
669.859	-7.62
669.89	15.38
669.922	7.38
669.953	13.38
669.985	26.38
670.016	19.38
670.047	-11.62
670.079	-1.62
670.11	7.38
670.142	2.38
670.173	8.38
670.204	-1.62
670.236	11.38
670.267	-22.62
670.299	5.38
670.33	3.38
670.362	10.38
670.393	-6.62
670.424	-1.62
670.456	-1.62
670.487	3.38
670.518	-6.62
670.55	-0.62
670.581	-10.62
670.613	2.38
670.644	0.38
670.675	-17.62
670.707	-15.62
670.738	13.38
670.769	-2.62
670.801	-23.62
670.832	8.38
670.864	-2.62
670.895	6.38
670.926	3.38
670.958	-8.62
670.989	-6.62
671.02	3.38
671.052	7.38
671.083	-1.62
671.114	-9.62
671.146	8.38
671.177	9.38
671.208	-6.62
671.24	-10.62
671.271	4.38
671.302	12.38
671.333	-9.62
671.365	-3.62
671.396	-12.62
671.427	5.38
671.459	-1.62
671.49	3.38
671.521	3.38
671.553	5.38
671.584	11.38
671.615	-5.62
671.646	15.38
671.678	8.38
671.709	-6.62
671.74	-20.62
671.771	-11.62
671.803	8.38
671.834	11.38
671.865	11.38
671.896	4.38
671.928	4.38
671.959	-13.62
671.99	-12.62
672.021	-10.62
672.053	-1.62
672.084	11.38
672.115	5.38
672.146	4.38
672.178	-7.62
672.209	-1.62
672.24	-9.62
672.271	27.38
672.303	-0.62
672.334	-3.62
672.365	-9.62
672.396	8.38
672.427	4.38
672.459	-0.62
672.49	17.38
672.521	30.38
672.552	12.38
672.583	-7.62
672.615	4.38
672.646	15.38
672.677	-4.62
672.708	7.38
672.739	8.38
672.77	10.38
672.802	-9.62
672.833	-1.62
672.864	-12.62
672.895	-1.62
672.926	-12.62
672.957	-1.62
672.989	-11.62
673.02	-5.62
673.051	-9.62
673.082	20.38
673.113	20.38
673.144	11.38
673.175	-1.62
673.206	-7.62
673.238	-1.62
673.269	-15.62
673.3	-5.62
673.331	-1.62
673.362	3.38
673.393	6.38
673.424	14.38
673.455	16.38
673.487	9.38
673.518	10.38
673.549	-2.62
673.58	5.38
673.611	5.38
673.642	13.38
673.673	-6.62
673.704	17.38
673.735	-3.62
673.766	-1.62
673.797	3.38
673.828	23.38
673.86	6.38
673.891	-11.62
673.922	-7.62
673.953	-2.62
673.984	1.38
674.015	-3.62
674.046	1.38
674.077	-5.62
674.108	-9.62
674.139	5.38
674.17	-3.62
674.201	1.38
674.232	-1.62
674.263	-11.62
674.294	-8.62
674.325	-5.62
674.356	8.38
674.387	11.38
674.418	12.38
674.449	-8.62
674.48	1.38
674.511	1.38
674.542	11.38
674.573	-4.62
674.604	1.38
674.635	2.38
674.666	13.38
674.697	6.38
674.728	1.38
674.759	-0.62
674.79	-6.62
674.821	-24.62
674.852	-10.62
674.883	-27.62
674.914	-8.62
674.945	-14.62
674.976	0.38
675.007	-2.62
675.038	-5.62
675.069	-8.62
675.1	-3.62
675.131	5.38
675.162	-22.62
675.193	-4.62
675.224	-5.62
675.254	-2.62
675.285	4.38
675.316	2.38
675.347	-9.62
675.378	-4.62
675.409	-15.62
675.44	17.38
675.471	4.38
675.502	-30.62
675.533	8.38
675.564	-10.62
675.595	7.38
675.625	18.38
675.656	7.38
675.687	2.38
675.718	-9.62
675.749	15.38
675.78	-0.62
675.811	7.38
675.842	11.38
675.873	-0.62
675.903	4.38
675.934	-9.62
675.965	-2.62
675.996	-7.62
676.027	7.38
676.058	2.38
676.089	-12.62
676.119	-13.62
676.15	-10.62
676.181	-5.62
676.212	3.38
676.243	18.38
676.274	3.38
676.304	6.38
676.335	-12.62
676.366	6.38
676.397	2.38
676.428	6.38
676.459	1.38
676.489	12.38
676.52	6.38
676.551	-0.62
676.582	-8.62
676.613	-1.62
676.643	-16.62
676.674	-1.62
676.705	8.38
676.736	0.38
676.767	18.38
676.797	9.38
676.828	25.38
676.859	-12.62
676.89	-7.62
676.92	5.38
676.951	5.38
676.982	6.38
677.013	5.38
677.044	12.38
677.074	-9.62
677.105	-5.62
677.136	2.38
677.167	-6.62
677.197	7.38
677.228	3.38
677.259	3.38
677.289	-8.62
677.32	-31.62
677.351	2.38
677.382	-7.62
677.412	-11.62
677.443	2.38
677.474	-11.62
677.505	-22.62
677.535	-2.62
677.566	-11.62
677.597	-12.62
677.627	-9.62
677.658	-6.62
677.689	-16.62
677.72	-0.62
677.75	7.38
677.781	8.38
677.812	3.38
677.842	-0.62
677.873	0.38
677.904	-2.62
677.934	11.38
677.965	-0.62
677.996	-19.62
678.026	-11.62
678.057	1.38
678.088	0.38
678.118	-1.62
678.149	0.38
678.18	2.38
678.21	-9.62
678.241	-4.62
678.272	0.38
678.302	24.38
678.333	10.38
678.363	1.38
678.394	-6.62
678.425	-7.62
678.455	-6.62
678.486	-0.62
678.517	-9.62
678.547	4.38
678.578	-2.62
678.608	0.38
678.639	10.38
678.67	24.38
678.7	-17.62
678.731	-8.62
678.761	0.38
678.792	7.38
678.823	12.38
678.853	-17.62
678.884	-19.62
678.914	7.38
678.945	4.38
678.975	-3.62
679.006	0.38
679.037	-4.62
679.067	6.38
679.098	-3.62
679.128	-8.62
679.159	0.38
679.189	-2.62
679.22	5.38
679.25	0.38
679.281	-0.62
679.312	-20.62
679.342	10.38
679.373	34.38
679.403	-3.62
679.434	-2.62
679.464	7.38
679.495	2.38
679.525	5.38
679.556	1.38
679.586	8.38
679.617	4.38
679.647	-0.62
679.678	10.38
679.708	-9.62
679.739	-4.62
679.769	-5.62
679.8	-3.62
679.83	-11.62
679.861	0.38
679.891	1.38
679.922	-25.62
679.952	-1.62
679.983	-2.62
680.013	-10.62
680.044	-7.62
680.074	4.38
680.105	4.38
680.135	14.38
680.165	5.38
680.196	12.38
680.226	5.38
680.257	11.38
680.287	3.38
680.318	-8.62
680.348	-6.62
680.379	10.38
680.409	4.38
680.439	-7.62
680.47	4.38
680.5	-4.62
680.531	-2.62
680.561	17.38
680.592	9.38
680.622	12.38
680.652	-3.62
680.683	9.38
680.713	1.38
680.744	-6.62
680.774	4.38
680.804	16.38
680.835	1.38
680.865	-18.62
680.896	8.38
680.926	10.38
680.956	3.38
680.987	7.38
681.017	-0.62
681.047	-3.62
681.078	-12.62
681.108	-16.62
681.139	-4.62
681.169	2.38
681.199	4.38
681.23	8.38
681.26	2.38
681.29	-7.62
681.321	-11.62
681.351	0.38
681.381	6.38
681.412	11.38
681.442	1.38
681.472	7.38
681.503	12.38
681.533	4.38
681.563	-7.62
681.594	8.38
681.624	-3.62
681.654	-14.62
681.685	1.38
681.715	0.38
681.745	-0.62
681.775	-7.62
681.806	12.38
681.836	-7.62
681.866	-19.62
681.897	8.38
681.927	-9.62
681.957	-11.62
681.987	2.38
682.018	4.38
682.048	7.38
682.078	-0.62
682.109	21.38
682.139	1.38
682.169	-3.62
682.199	-12.62
682.23	-1.62
682.26	-7.62
682.29	4.38
682.32	10.38
682.351	5.38
682.381	3.38
682.411	6.38
682.441	6.38
682.472	-12.62
682.502	8.38
682.532	-2.62
682.562	16.38
682.592	-8.62
