Data from HighRes_H2D2_15_04_11_07_2024_HR4C61891__96__15-05-44-042.txt Node

Date: Thu Nov 07 15:05:44 EST 2024
User: crc00042
Spectrometer: HR4C6189
Trigger mode: 4
Integration Time (sec): 1.000000E-1
Scans to average: 1
Electric dark correction enabled: true
Nonlinearity correction enabled: false
Boxcar width: 0
XAxis mode: Wavelengths
Number of Pixels in Spectrum: 3648
>>>>>Begin Spectral Data<<<<<
639.567	-76.31
639.602	-76.31
639.636	-76.31
639.67	-52.31
639.704	-27.31
639.738	1.69
639.773	0.69
639.807	-13.31
639.841	9.69
639.875	10.69
639.909	-15.31
639.943	-6.31
639.978	0.69
640.012	6.69
640.046	20.69
640.08	3.69
640.114	6.69
640.148	-26.31
640.182	-13.31
640.217	-0.31
640.251	7.69
640.285	-8.31
640.319	-13.31
640.353	0.69
640.387	-1.31
640.421	-9.31
640.455	-3.31
640.49	6.69
640.524	1.69
640.558	20.69
640.592	-19.31
640.626	-0.31
640.66	9.69
640.694	-19.31
640.728	-0.31
640.762	8.69
640.796	13.69
640.83	7.69
640.865	-1.31
640.899	-0.31
640.933	9.69
640.967	1.69
641.001	3.69
641.035	3.69
641.069	4.69
641.103	11.69
641.137	1.69
641.171	-10.31
641.205	11.69
641.239	-14.31
641.273	16.69
641.307	19.69
641.341	6.69
641.375	-4.31
641.409	-11.31
641.443	-7.31
641.477	-8.31
641.511	-7.31
641.545	1.69
641.579	-4.31
641.614	17.69
641.648	3.69
641.682	-9.31
641.716	8.69
641.75	-0.31
641.784	-21.31
641.818	0.69
641.852	2.69
641.886	5.69
641.919	21.69
641.953	-2.31
641.987	-10.31
642.021	7.69
642.055	3.69
642.089	6.69
642.123	-19.31
642.157	4.69
642.191	1.69
642.225	8.69
642.259	7.69
642.293	12.69
642.327	-4.31
642.361	-8.31
642.395	21.69
642.429	4.69
642.463	-8.31
642.497	16.69
642.531	6.69
642.565	-17.31
642.599	19.69
642.633	-14.31
642.666	-2.31
642.7	2.69
642.734	4.69
642.768	-11.31
642.802	5.69
642.836	9.69
642.87	10.69
642.904	14.69
642.938	13.69
642.972	-1.31
643.005	-13.31
643.039	14.69
643.073	-6.31
643.107	5.69
643.141	-1.31
643.175	-6.31
643.209	-8.31
643.243	1.69
643.276	6.69
643.31	4.69
643.344	-3.31
643.378	-0.31
643.412	7.69
643.446	-4.31
643.48	-0.31
643.513	21.69
643.547	-1.31
643.581	-0.31
643.615	11.69
643.649	-14.31
643.683	1.69
643.716	-8.31
643.75	-7.31
643.784	2.69
643.818	3.69
643.852	-4.31
643.886	14.69
643.919	-3.31
643.953	-6.31
643.987	-1.31
644.021	4.69
644.055	5.69
644.088	2.69
644.122	-3.31
644.156	-10.31
644.19	-5.31
644.224	1.69
644.257	10.69
644.291	19.69
644.325	3.69
644.359	-9.31
644.392	0.69
644.426	3.69
644.46	0.69
644.494	18.69
644.527	1.69
644.561	1.69
644.595	-3.31
644.629	-1.31
644.662	-8.31
644.696	-5.31
644.73	1.69
644.764	-15.31
644.797	-13.31
644.831	-1.31
644.865	11.69
644.899	10.69
644.932	18.69
644.966	-7.31
645	8.69
645.033	18.69
645.067	-4.31
645.101	14.69
645.135	-5.31
645.168	-8.31
645.202	-2.31
645.236	13.69
645.269	-1.31
645.303	-2.31
645.337	-6.31
645.37	-9.31
645.404	9.69
645.438	20.69
645.471	-3.31
645.505	-4.31
645.539	-8.31
645.572	-16.31
645.606	-12.31
645.64	-3.31
645.673	-5.31
645.707	8.69
645.741	5.69
645.774	-14.31
645.808	-2.31
645.842	-7.31
645.875	16.69
645.909	-2.31
645.943	4.69
645.976	4.69
646.01	6.69
646.043	17.69
646.077	11.69
646.111	6.69
646.144	9.69
646.178	-3.31
646.212	-9.31
646.245	-13.31
646.279	-7.31
646.312	6.69
646.346	14.69
646.38	5.69
646.413	2.69
646.447	6.69
646.48	-7.31
646.514	9.69
646.547	6.69
646.581	-0.31
646.615	-26.31
646.648	-18.31
646.682	-15.31
646.715	8.69
646.749	12.69
646.782	4.69
646.816	-4.31
646.85	9.69
646.883	-10.31
646.917	8.69
646.95	9.69
646.984	6.69
647.017	1.69
647.051	4.69
647.084	11.69
647.118	8.69
647.151	-0.31
647.185	-0.31
647.218	-5.31
647.252	-15.31
647.285	-5.31
647.319	-6.31
647.353	1.69
647.386	24.69
647.42	1.69
647.453	13.69
647.487	7.69
647.52	-1.31
647.553	9.69
647.587	11.69
647.62	4.69
647.654	9.69
647.687	7.69
647.721	0.69
647.754	-3.31
647.788	-6.31
647.821	-3.31
647.855	-4.31
647.888	7.69
647.922	13.69
647.955	8.69
647.989	9.69
648.022	2.69
648.055	8.69
648.089	-10.31
648.122	28.69
648.156	-9.31
648.189	-11.31
648.223	13.69
648.256	17.69
648.29	6.69
648.323	14.69
648.356	12.69
648.39	-3.31
648.423	-15.31
648.457	1.69
648.49	4.69
648.523	10.69
648.557	-8.31
648.59	0.69
648.624	4.69
648.657	-5.31
648.69	-0.31
648.724	4.69
648.757	14.69
648.791	5.69
648.824	5.69
648.857	11.69
648.891	-7.31
648.924	5.69
648.957	16.69
648.991	3.69
649.024	8.69
649.057	2.69
649.091	0.69
649.124	13.69
649.158	12.69
649.191	10.69
649.224	9.69
649.258	7.69
649.291	1.69
649.324	22.69
649.358	15.69
649.391	9.69
649.424	-3.31
649.458	-12.31
649.491	7.69
649.524	-1.31
649.557	3.69
649.591	-14.31
649.624	11.69
649.657	0.69
649.691	2.69
649.724	7.69
649.757	10.69
649.791	9.69
649.824	3.69
649.857	11.69
649.89	-3.31
649.924	-20.31
649.957	13.69
649.99	-7.31
650.023	-9.31
650.057	6.69
650.09	12.69
650.123	-2.31
650.157	7.69
650.19	27.69
650.223	-4.31
650.256	-11.31
650.29	-7.31
650.323	1.69
650.356	14.69
650.389	-7.31
650.423	-3.31
650.456	-6.31
650.489	10.69
650.522	7.69
650.555	10.69
650.589	-3.31
650.622	-0.31
650.655	21.69
650.688	14.69
650.721	-0.31
650.755	6.69
650.788	2.69
650.821	4.69
650.854	13.69
650.887	13.69
650.921	3.69
650.954	-10.31
650.987	11.69
651.02	-9.31
651.053	0.69
651.087	-3.31
651.12	24.69
651.153	10.69
651.186	8.69
651.219	-11.31
651.252	14.69
651.286	17.69
651.319	7.69
651.352	5.69
651.385	0.69
651.418	2.69
651.451	9.69
651.484	8.69
651.518	2.69
651.551	13.69
651.584	-3.31
651.617	13.69
651.65	-7.31
651.683	14.69
651.716	6.69
651.749	0.69
651.783	5.69
651.816	-15.31
651.849	9.69
651.882	4.69
651.915	1.69
651.948	19.69
651.981	-5.31
652.014	-14.31
652.047	9.69
652.08	-1.31
652.114	10.69
652.147	-3.31
652.18	4.69
652.213	24.69
652.246	-4.31
652.279	-4.31
652.312	22.69
652.345	3.69
652.378	15.69
652.411	11.69
652.444	11.69
652.477	-6.31
652.51	9.69
652.543	-8.31
652.576	-7.31
652.609	0.69
652.642	-5.31
652.675	-7.31
652.709	-4.31
652.742	1.69
652.775	18.69
652.808	14.69
652.841	5.69
652.874	18.69
652.907	5.69
652.94	4.69
652.973	-4.31
653.006	-13.31
653.039	3.69
653.072	16.69
653.105	0.69
653.138	-25.31
653.171	-6.31
653.204	-7.31
653.237	8.69
653.27	-3.31
653.303	11.69
653.336	12.69
653.368	-4.31
653.401	8.69
653.434	6.69
653.467	15.69
653.5	-11.31
653.533	-18.31
653.566	-3.31
653.599	-2.31
653.632	7.69
653.665	-0.31
653.698	-9.31
653.731	-1.31
653.764	-5.31
653.797	6.69
653.83	4.69
653.863	13.69
653.896	9.69
653.929	-8.31
653.961	16.69
653.994	-1.31
654.027	0.69
654.06	-0.31
654.093	7.69
654.126	12.69
654.159	8.69
654.192	15.69
654.225	-0.31
654.258	-6.31
654.29	-8.31
654.323	-5.31
654.356	7.69
654.389	7.69
654.422	5.69
654.455	7.69
654.488	15.69
654.521	-18.31
654.553	-28.31
654.586	5.69
654.619	-5.31
654.652	0.69
654.685	15.69
654.718	16.69
654.751	13.69
654.783	4.69
654.816	17.69
654.849	3.69
654.882	-7.31
654.915	-17.31
654.948	4.69
654.98	2.69
655.013	10.69
655.046	-5.31
655.079	1.69
655.112	-4.31
655.144	-15.31
655.177	-3.31
655.21	8.69
655.243	15.69
655.276	9.69
655.308	-5.31
655.341	-8.31
655.374	7.69
655.407	-10.31
655.44	0.69
655.472	5.69
655.505	-8.31
655.538	-8.31
655.571	10.69
655.603	5.69
655.636	0.69
655.669	11.69
655.702	-3.31
655.734	-15.31
655.767	3.69
655.8	5.69
655.833	7.69
655.865	12.69
655.898	4.69
655.931	11.69
655.964	9.69
655.996	15.69
656.029	33.69
656.062	24.69
656.095	43.69
656.127	75.69
656.16	181.69
656.193	619.69
656.225	964.69
656.258	543.69
656.291	216.69
656.324	177.69
656.356	349.69
656.389	770.69
656.422	661.69
656.454	209.69
656.487	76.69
656.52	42.69
656.552	0.69
656.585	4.69
656.618	1.69
656.65	11.69
656.683	7.69
656.716	14.69
656.748	8.69
656.781	13.69
656.814	-1.31
656.846	19.69
656.879	-0.31
656.912	5.69
656.944	-13.31
656.977	-15.31
657.01	5.69
657.042	6.69
657.075	7.69
657.108	-1.31
657.14	-4.31
657.173	9.69
657.205	33.69
657.238	7.69
657.271	-3.31
657.303	-9.31
657.336	-2.31
657.369	3.69
657.401	-10.31
657.434	-3.31
657.466	6.69
657.499	5.69
657.532	-16.31
657.564	3.69
657.597	-3.31
657.629	-1.31
657.662	-5.31
657.694	1.69
657.727	-1.31
657.76	8.69
657.792	-6.31
657.825	-9.31
657.857	-8.31
657.89	-3.31
657.922	5.69
657.955	-1.31
657.987	-2.31
658.02	4.69
658.053	19.69
658.085	-1.31
658.118	-3.31
658.15	13.69
658.183	17.69
658.215	-5.31
658.248	-14.31
658.28	-17.31
658.313	24.69
658.345	6.69
658.378	20.69
658.41	0.69
658.443	13.69
658.475	8.69
658.508	12.69
658.54	-17.31
658.573	-18.31
658.605	8.69
658.638	0.69
658.67	-2.31
658.703	4.69
658.735	2.69
658.768	10.69
658.8	-10.31
658.833	37.69
658.865	-0.31
658.898	-5.31
658.93	-10.31
658.963	-8.31
658.995	-20.31
659.028	-1.31
659.06	-2.31
659.092	-6.31
659.125	-0.31
659.157	-2.31
659.19	-12.31
659.222	-5.31
659.255	0.69
659.287	-0.31
659.32	2.69
659.352	7.69
659.384	16.69
659.417	4.69
659.449	-4.31
659.482	8.69
659.514	-7.31
659.546	-3.31
659.579	9.69
659.611	12.69
659.644	-3.31
659.676	-3.31
659.708	-6.31
659.741	-6.31
659.773	18.69
659.806	3.69
659.838	-11.31
659.87	19.69
659.903	3.69
659.935	2.69
659.967	12.69
660	4.69
660.032	-8.31
660.065	22.69
660.097	16.69
660.129	0.69
660.162	1.69
660.194	-0.31
660.226	10.69
660.259	16.69
660.291	-6.31
660.323	-6.31
660.356	5.69
660.388	-16.31
660.42	-17.31
660.453	1.69
660.485	-2.31
660.517	18.69
660.55	20.69
660.582	8.69
660.614	9.69
660.647	-9.31
660.679	-28.31
660.711	14.69
660.743	-3.31
660.776	-0.31
660.808	9.69
660.84	4.69
660.873	6.69
660.905	-1.31
660.937	-0.31
660.969	-7.31
661.002	0.69
661.034	7.69
661.066	3.69
661.099	-6.31
661.131	9.69
661.163	-5.31
661.195	14.69
661.228	12.69
661.26	-4.31
661.292	-11.31
661.324	4.69
661.357	-0.31
661.389	-2.31
661.421	-0.31
661.453	6.69
661.485	11.69
661.518	4.69
661.55	-16.31
661.582	-3.31
661.614	-8.31
661.647	-7.31
661.679	1.69
661.711	17.69
661.743	-5.31
661.775	15.69
661.808	11.69
661.84	-11.31
661.872	-0.31
661.904	0.69
661.936	11.69
661.969	-3.31
662.001	-10.31
662.033	7.69
662.065	-0.31
662.097	5.69
662.129	18.69
662.162	-1.31
662.194	9.69
662.226	10.69
662.258	28.69
662.29	8.69
662.322	-7.31
662.355	-23.31
662.387	9.69
662.419	5.69
662.451	20.69
662.483	18.69
662.515	4.69
662.547	9.69
662.58	-11.31
662.612	-8.31
662.644	-16.31
662.676	7.69
662.708	14.69
662.74	-10.31
662.772	-2.31
662.804	4.69
662.836	1.69
662.869	-13.31
662.901	11.69
662.933	-18.31
662.965	19.69
662.997	20.69
663.029	4.69
663.061	-10.31
663.093	-0.31
663.125	-9.31
663.157	16.69
663.189	7.69
663.221	17.69
663.254	3.69
663.286	8.69
663.318	-5.31
663.35	-0.31
663.382	-18.31
663.414	-24.31
663.446	-17.31
663.478	-3.31
663.51	30.69
663.542	-12.31
663.574	-16.31
663.606	6.69
663.638	-8.31
663.67	-7.31
663.702	9.69
663.734	9.69
663.766	8.69
663.798	-9.31
663.83	-14.31
663.862	-0.31
663.894	-2.31
663.926	-5.31
663.958	8.69
663.99	9.69
664.022	-8.31
664.054	6.69
664.086	-3.31
664.118	-11.31
664.15	-9.31
664.182	1.69
664.214	3.69
664.246	3.69
664.278	-3.31
664.31	6.69
664.342	-1.31
664.374	-9.31
664.406	12.69
664.438	3.69
664.47	16.69
664.502	-2.31
664.534	12.69
664.566	-11.31
664.598	9.69
664.63	2.69
664.662	-3.31
664.693	-3.31
664.725	-18.31
664.757	-11.31
664.789	-10.31
664.821	-2.31
664.853	24.69
664.885	-2.31
664.917	-11.31
664.949	11.69
664.981	19.69
665.013	0.69
665.045	-10.31
665.076	-10.31
665.108	-2.31
665.14	-16.31
665.172	9.69
665.204	-5.31
665.236	5.69
665.268	14.69
665.3	-1.31
665.331	-5.31
665.363	7.69
665.395	-14.31
665.427	1.69
665.459	-3.31
665.491	-2.31
665.523	-0.31
665.555	-7.31
665.586	2.69
665.618	2.69
665.65	-2.31
665.682	3.69
665.714	-3.31
665.746	1.69
665.777	5.69
665.809	3.69
665.841	6.69
665.873	-5.31
665.905	5.69
665.937	16.69
665.968	-1.31
666	3.69
666.032	-0.31
666.064	-11.31
666.096	-4.31
666.127	-16.31
666.159	-1.31
666.191	-6.31
666.223	9.69
666.255	-5.31
666.286	12.69
666.318	14.69
666.35	24.69
666.382	9.69
666.413	-0.31
666.445	-7.31
666.477	-9.31
666.509	4.69
666.54	7.69
666.572	7.69
666.604	-3.31
666.636	-0.31
666.667	17.69
666.699	18.69
666.731	12.69
666.763	-4.31
666.794	16.69
666.826	-0.31
666.858	-9.31
666.89	5.69
666.921	-2.31
666.953	-10.31
666.985	4.69
667.017	9.69
667.048	3.69
667.08	-2.31
667.112	7.69
667.143	-14.31
667.175	11.69
667.207	-15.31
667.238	-5.31
667.27	-1.31
667.302	15.69
667.334	12.69
667.365	8.69
667.397	16.69
667.429	-1.31
667.46	8.69
667.492	5.69
667.524	-2.31
667.555	-7.31
667.587	2.69
667.619	-5.31
667.65	-3.31
667.682	14.69
667.714	-20.31
667.745	-7.31
667.777	-18.31
667.808	2.69
667.84	14.69
667.872	7.69
667.903	17.69
667.935	-13.31
667.967	5.69
667.998	5.69
668.03	-9.31
668.061	-24.31
668.093	-5.31
668.125	8.69
668.156	0.69
668.188	4.69
668.22	-0.31
668.251	1.69
668.283	13.69
668.314	1.69
668.346	-8.31
668.377	-9.31
668.409	-18.31
668.441	0.69
668.472	5.69
668.504	12.69
668.535	12.69
668.567	18.69
668.599	14.69
668.63	5.69
668.662	1.69
668.693	24.69
668.725	13.69
668.756	17.69
668.788	9.69
668.819	0.69
668.851	12.69
668.882	-5.31
668.914	-18.31
668.946	-1.31
668.977	-2.31
669.009	-10.31
669.04	-9.31
669.072	5.69
669.103	1.69
669.135	-6.31
669.166	-5.31
669.198	-3.31
669.229	9.69
669.261	-1.31
669.292	7.69
669.324	-4.31
669.355	-2.31
669.387	-10.31
669.418	7.69
669.45	-10.31
669.481	-9.31
669.513	-1.31
669.544	-6.31
669.576	-7.31
669.607	26.69
669.639	14.69
669.67	-17.31
669.701	8.69
669.733	-1.31
669.764	-1.31
669.796	9.69
669.827	-7.31
669.859	-3.31
669.89	-10.31
669.922	-8.31
669.953	-5.31
669.985	-3.31
670.016	4.69
670.047	-16.31
670.079	-9.31
670.11	15.69
670.142	8.69
670.173	6.69
670.204	-4.31
670.236	-7.31
670.267	-3.31
670.299	-7.31
670.33	19.69
670.362	3.69
670.393	-15.31
670.424	7.69
670.456	-19.31
670.487	4.69
670.518	-15.31
670.55	4.69
670.581	5.69
670.613	-7.31
670.644	-21.31
670.675	-7.31
670.707	-0.31
670.738	8.69
670.769	-1.31
670.801	-5.31
670.832	17.69
670.864	-3.31
670.895	-14.31
670.926	0.69
670.958	1.69
670.989	1.69
671.02	-7.31
671.052	-10.31
671.083	1.69
671.114	-4.31
671.146	6.69
671.177	-3.31
671.208	-6.31
671.24	-11.31
671.271	-7.31
671.302	12.69
671.333	-1.31
671.365	2.69
671.396	5.69
671.427	6.69
671.459	2.69
671.49	6.69
671.521	5.69
671.553	5.69
671.584	-0.31
671.615	0.69
671.646	5.69
671.678	-3.31
671.709	-14.31
671.74	-28.31
671.771	-5.31
671.803	-6.31
671.834	9.69
671.865	4.69
671.896	2.69
671.928	-1.31
671.959	-0.31
671.99	2.69
672.021	-4.31
672.053	-8.31
672.084	7.69
672.115	6.69
672.146	-2.31
672.178	-1.31
672.209	-2.31
672.24	-2.31
672.271	13.69
672.303	7.69
672.334	7.69
672.365	1.69
672.396	7.69
672.427	-4.31
672.459	15.69
672.49	41.69
672.521	14.69
672.552	18.69
672.583	20.69
672.615	-0.31
672.646	2.69
672.677	-10.31
672.708	-11.31
672.739	-18.31
672.77	22.69
672.802	8.69
672.833	-11.31
672.864	7.69
672.895	-1.31
672.926	-0.31
672.957	-1.31
672.989	4.69
673.02	-14.31
673.051	-17.31
673.082	12.69
673.113	3.69
673.144	-0.31
673.175	14.69
673.206	5.69
673.238	-0.31
673.269	-7.31
673.3	-17.31
673.331	-1.31
673.362	-7.31
673.393	18.69
673.424	9.69
673.455	26.69
673.487	5.69
673.518	-0.31
673.549	-7.31
673.58	-5.31
673.611	-6.31
673.642	17.69
673.673	1.69
673.704	0.69
673.735	-0.31
673.766	6.69
673.797	-15.31
673.828	1.69
673.86	6.69
673.891	-20.31
673.922	-17.31
673.953	-23.31
673.984	-2.31
674.015	0.69
674.046	-7.31
674.077	4.69
674.108	3.69
674.139	-4.31
674.17	3.69
674.201	-3.31
674.232	-2.31
674.263	0.69
674.294	-8.31
674.325	-1.31
674.356	8.69
674.387	30.69
674.418	3.69
674.449	-13.31
674.48	4.69
674.511	4.69
674.542	11.69
674.573	-5.31
674.604	14.69
674.635	-4.31
674.666	4.69
674.697	-0.31
674.728	10.69
674.759	-14.31
674.79	-21.31
674.821	-11.31
674.852	7.69
674.883	-3.31
674.914	7.69
674.945	-4.31
674.976	2.69
675.007	-1.31
675.038	0.69
675.069	-2.31
675.1	-6.31
675.131	0.69
675.162	-11.31
675.193	-20.31
675.224	6.69
675.254	-2.31
675.285	7.69
675.316	16.69
675.347	-0.31
675.378	-5.31
675.409	-0.31
675.44	20.69
675.471	15.69
675.502	-1.31
675.533	3.69
675.564	12.69
675.595	3.69
675.625	27.69
675.656	10.69
675.687	10.69
675.718	0.69
675.749	3.69
675.78	9.69
675.811	-0.31
675.842	-0.31
675.873	-1.31
675.903	3.69
675.934	7.69
675.965	-8.31
675.996	-24.31
676.027	-11.31
676.058	-11.31
676.089	-14.31
676.119	-3.31
676.15	11.69
676.181	-3.31
676.212	8.69
676.243	1.69
676.274	8.69
676.304	13.69
676.335	-26.31
676.366	10.69
676.397	6.69
676.428	-11.31
676.459	-0.31
676.489	1.69
676.52	0.69
676.551	14.69
676.582	-9.31
676.613	-10.31
676.643	-16.31
676.674	14.69
676.705	2.69
676.736	4.69
676.767	24.69
676.797	25.69
676.828	16.69
676.859	3.69
676.89	-10.31
676.92	0.69
676.951	-11.31
676.982	7.69
677.013	-7.31
677.044	16.69
677.074	1.69
677.105	-5.31
677.136	4.69
677.167	15.69
677.197	20.69
677.228	1.69
677.259	-2.31
677.289	1.69
677.32	-10.31
677.351	-12.31
677.382	-3.31
677.412	0.69
677.443	16.69
677.474	9.69
677.505	6.69
677.535	-6.31
677.566	-21.31
677.597	-15.31
677.627	-13.31
677.658	-13.31
677.689	-1.31
677.72	-5.31
677.75	-4.31
677.781	7.69
677.812	-2.31
677.842	7.69
677.873	-1.31
677.904	-5.31
677.934	-7.31
677.965	-13.31
677.996	-20.31
678.026	4.69
678.057	-4.31
678.088	-15.31
678.118	-18.31
678.149	0.69
678.18	-2.31
678.21	3.69
678.241	-12.31
678.272	-3.31
678.302	6.69
678.333	8.69
678.363	40.69
678.394	6.69
678.425	8.69
678.455	4.69
678.486	16.69
678.517	-0.31
678.547	-1.31
678.578	5.69
678.608	-9.31
678.639	4.69
678.67	-3.31
678.7	-8.31
678.731	7.69
678.761	-8.31
678.792	-9.31
678.823	14.69
678.853	-2.31
678.884	-9.31
678.914	5.69
678.945	1.69
678.975	-13.31
679.006	-10.31
679.037	-7.31
679.067	13.69
679.098	-6.31
679.128	1.69
679.159	0.69
679.189	13.69
679.22	-10.31
679.25	12.69
679.281	1.69
679.312	7.69
679.342	24.69
679.373	19.69
679.403	-2.31
679.434	-7.31
679.464	-6.31
679.495	1.69
679.525	-0.31
679.556	5.69
679.586	22.69
679.617	1.69
679.647	0.69
679.678	1.69
679.708	-1.31
679.739	-11.31
679.769	-10.31
679.8	-2.31
679.83	-0.31
679.861	-5.31
679.891	-0.31
679.922	-6.31
679.952	-7.31
679.983	6.69
680.013	-1.31
680.044	-6.31
680.074	6.69
680.105	12.69
680.135	9.69
680.165	11.69
680.196	10.69
680.226	-1.31
680.257	10.69
680.287	-0.31
680.318	-0.31
680.348	-10.31
680.379	12.69
680.409	1.69
680.439	-11.31
680.47	4.69
680.5	-8.31
680.531	-5.31
680.561	-0.31
680.592	4.69
680.622	18.69
680.652	17.69
680.683	28.69
680.713	0.69
680.744	19.69
680.774	4.69
680.804	6.69
680.835	-3.31
680.865	-7.31
680.896	16.69
680.926	15.69
680.956	-2.31
680.987	18.69
681.017	4.69
681.047	9.69
681.078	-15.31
681.108	-8.31
681.139	-6.31
681.169	-1.31
681.199	-1.31
681.23	10.69
681.26	-7.31
681.29	-0.31
681.321	-7.31
681.351	6.69
681.381	-22.31
681.412	11.69
681.442	8.69
681.472	9.69
681.503	17.69
681.533	6.69
681.563	4.69
681.594	-1.31
681.624	1.69
681.654	1.69
681.685	-1.31
681.715	4.69
681.745	9.69
681.775	1.69
681.806	-1.31
681.836	-4.31
681.866	-10.31
681.897	-6.31
681.927	-8.31
681.957	-34.31
681.987	-0.31
682.018	3.69
682.048	3.69
682.078	-4.31
682.109	18.69
682.139	1.69
682.169	8.69
682.199	3.69
682.23	-5.31
682.26	-2.31
682.29	-0.31
682.32	-13.31
682.351	-7.31
682.381	-5.31
682.411	3.69
682.441	7.69
682.472	-3.31
682.502	-4.31
682.532	-12.31
