Data from HighRes_H2D2_15_04_11_07_2024_HR4C61891__78__15-05-42-243.txt Node

Date: Thu Nov 07 15:05:42 EST 2024
User: crc00042
Spectrometer: HR4C6189
Trigger mode: 4
Integration Time (sec): 1.000000E-1
Scans to average: 1
Electric dark correction enabled: true
Nonlinearity correction enabled: false
Boxcar width: 0
XAxis mode: Wavelengths
Number of Pixels in Spectrum: 3648
>>>>>Begin Spectral Data<<<<<
639.567	-27.77
639.602	-27.77
639.636	-27.77
639.67	-44.77
639.704	-6.77
639.738	1.23
639.773	-11.77
639.807	-21.77
639.841	11.23
639.875	15.23
639.909	-13.77
639.943	-11.77
639.978	-9.77
640.012	0.23
640.046	28.23
640.08	4.23
640.114	8.23
640.148	0.23
640.182	-7.77
640.217	-3.77
640.251	15.23
640.285	0.23
640.319	-8.77
640.353	21.23
640.387	4.23
640.421	-11.77
640.455	-17.77
640.49	7.23
640.524	-1.77
640.558	10.23
640.592	7.23
640.626	13.23
640.66	15.23
640.694	-6.77
640.728	13.23
640.762	16.23
640.796	19.23
640.83	14.23
640.865	-7.77
640.899	5.23
640.933	-2.77
640.967	6.23
641.001	2.23
641.035	-15.77
641.069	-4.77
641.103	6.23
641.137	1.23
641.171	-3.77
641.205	1.23
641.239	-12.77
641.273	18.23
641.307	4.23
641.341	-2.77
641.375	5.23
641.409	0.23
641.443	10.23
641.477	-3.77
641.511	13.23
641.545	15.23
641.579	5.23
641.614	16.23
641.648	-6.77
641.682	-27.77
641.716	8.23
641.75	14.23
641.784	1.23
641.818	-7.77
641.852	4.23
641.886	-21.77
641.919	11.23
641.953	6.23
641.987	-0.77
642.021	8.23
642.055	7.23
642.089	-1.77
642.123	-14.77
642.157	4.23
642.191	-3.77
642.225	3.23
642.259	-3.77
642.293	9.23
642.327	-8.77
642.361	-0.77
642.395	14.23
642.429	28.23
642.463	8.23
642.497	17.23
642.531	-2.77
642.565	2.23
642.599	3.23
642.633	-7.77
642.666	8.23
642.7	8.23
642.734	17.23
642.768	-1.77
642.802	0.23
642.836	-3.77
642.87	-7.77
642.904	-12.77
642.938	16.23
642.972	4.23
643.005	0.23
643.039	21.23
643.073	-1.77
643.107	13.23
643.141	-8.77
643.175	17.23
643.209	18.23
643.243	11.23
643.276	32.23
643.31	13.23
643.344	-5.77
643.378	-4.77
643.412	13.23
643.446	12.23
643.48	23.23
643.513	11.23
643.547	11.23
643.581	5.23
643.615	-1.77
643.649	-4.77
643.683	-15.77
643.716	-5.77
643.75	8.23
643.784	-7.77
643.818	-0.77
643.852	4.23
643.886	2.23
643.919	20.23
643.953	-0.77
643.987	2.23
644.021	18.23
644.055	8.23
644.088	-2.77
644.122	-1.77
644.156	8.23
644.19	4.23
644.224	0.23
644.257	5.23
644.291	24.23
644.325	14.23
644.359	-1.77
644.392	19.23
644.426	15.23
644.46	2.23
644.494	4.23
644.527	-18.77
644.561	2.23
644.595	-0.77
644.629	-1.77
644.662	-12.77
644.696	12.23
644.73	21.23
644.764	1.23
644.797	17.23
644.831	-2.77
644.865	14.23
644.899	15.23
644.932	23.23
644.966	6.23
645	7.23
645.033	14.23
645.067	1.23
645.101	14.23
645.135	-0.77
645.168	-7.77
645.202	-2.77
645.236	-0.77
645.269	12.23
645.303	7.23
645.337	-8.77
645.37	2.23
645.404	-0.77
645.438	-5.77
645.471	-11.77
645.505	13.23
645.539	14.23
645.572	-7.77
645.606	-3.77
645.64	-3.77
645.673	-9.77
645.707	9.23
645.741	1.23
645.774	-3.77
645.808	10.23
645.842	-8.77
645.875	-4.77
645.909	-12.77
645.943	-1.77
645.976	-5.77
646.01	20.23
646.043	16.23
646.077	7.23
646.111	0.23
646.144	16.23
646.178	4.23
646.212	0.23
646.245	-2.77
646.279	0.23
646.312	14.23
646.346	10.23
646.38	3.23
646.413	22.23
646.447	26.23
646.48	14.23
646.514	8.23
646.547	5.23
646.581	-4.77
646.615	-4.77
646.648	-15.77
646.682	-0.77
646.715	-6.77
646.749	12.23
646.782	5.23
646.816	-2.77
646.85	2.23
646.883	-14.77
646.917	0.23
646.95	18.23
646.984	4.23
647.017	5.23
647.051	14.23
647.084	15.23
647.118	2.23
647.151	1.23
647.185	3.23
647.218	-7.77
647.252	-3.77
647.285	-2.77
647.319	-1.77
647.353	12.23
647.386	27.23
647.42	3.23
647.453	10.23
647.487	12.23
647.52	-1.77
647.553	3.23
647.587	-2.77
647.62	1.23
647.654	9.23
647.687	12.23
647.721	1.23
647.754	16.23
647.788	21.23
647.821	-2.77
647.855	-5.77
647.888	11.23
647.922	16.23
647.955	33.23
647.989	14.23
648.022	7.23
648.055	21.23
648.089	-4.77
648.122	21.23
648.156	0.23
648.189	10.23
648.223	15.23
648.256	15.23
648.29	-0.77
648.323	-0.77
648.356	16.23
648.39	10.23
648.423	16.23
648.457	5.23
648.49	-1.77
648.523	12.23
648.557	6.23
648.59	13.23
648.624	0.23
648.657	12.23
648.69	13.23
648.724	3.23
648.757	-0.77
648.791	19.23
648.824	22.23
648.857	24.23
648.891	9.23
648.924	11.23
648.957	18.23
648.991	-1.77
649.024	22.23
649.057	5.23
649.091	-0.77
649.124	3.23
649.158	27.23
649.191	23.23
649.224	-1.77
649.258	15.23
649.291	13.23
649.324	23.23
649.358	-0.77
649.391	9.23
649.424	12.23
649.458	-4.77
649.491	-0.77
649.524	6.23
649.557	-0.77
649.591	-13.77
649.624	3.23
649.657	1.23
649.691	2.23
649.724	1.23
649.757	17.23
649.791	-2.77
649.824	15.23
649.857	20.23
649.89	3.23
649.924	5.23
649.957	-15.77
649.99	-28.77
650.023	2.23
650.057	-12.77
650.09	-8.77
650.123	12.23
650.157	24.23
650.19	2.23
650.223	-11.77
650.256	1.23
650.29	5.23
650.323	11.23
650.356	19.23
650.389	-7.77
650.423	-4.77
650.456	15.23
650.489	-5.77
650.522	23.23
650.555	22.23
650.589	19.23
650.622	2.23
650.655	2.23
650.688	18.23
650.721	16.23
650.755	4.23
650.788	14.23
650.821	-3.77
650.854	4.23
650.887	10.23
650.921	-4.77
650.954	-2.77
650.987	0.23
651.02	-13.77
651.053	-12.77
651.087	-8.77
651.12	35.23
651.153	-1.77
651.186	13.23
651.219	5.23
651.252	-1.77
651.286	-1.77
651.319	-4.77
651.352	14.23
651.385	14.23
651.418	-2.77
651.451	9.23
651.484	11.23
651.518	-0.77
651.551	20.23
651.584	1.23
651.617	24.23
651.65	4.23
651.683	5.23
651.716	-5.77
651.749	-1.77
651.783	13.23
651.816	9.23
651.849	7.23
651.882	10.23
651.915	1.23
651.948	-0.77
651.981	0.23
652.014	-15.77
652.047	0.23
652.08	8.23
652.114	13.23
652.147	3.23
652.18	8.23
652.213	30.23
652.246	8.23
652.279	-7.77
652.312	7.23
652.345	7.23
652.378	4.23
652.411	7.23
652.444	4.23
652.477	3.23
652.51	0.23
652.543	-11.77
652.576	3.23
652.609	9.23
652.642	-1.77
652.675	18.23
652.709	11.23
652.742	11.23
652.775	4.23
652.808	17.23
652.841	12.23
652.874	10.23
652.907	4.23
652.94	-5.77
652.973	-8.77
653.006	7.23
653.039	15.23
653.072	5.23
653.105	8.23
653.138	-4.77
653.171	0.23
653.204	3.23
653.237	-17.77
653.27	-8.77
653.303	-12.77
653.336	15.23
653.368	-18.77
653.401	-2.77
653.434	11.23
653.467	12.23
653.5	5.23
653.533	0.23
653.566	3.23
653.599	3.23
653.632	5.23
653.665	7.23
653.698	2.23
653.731	2.23
653.764	11.23
653.797	5.23
653.83	-0.77
653.863	-7.77
653.896	-3.77
653.929	-5.77
653.961	17.23
653.994	8.23
654.027	-7.77
654.06	8.23
654.093	19.23
654.126	-0.77
654.159	-5.77
654.192	2.23
654.225	12.23
654.258	5.23
654.29	1.23
654.323	2.23
654.356	17.23
654.389	11.23
654.422	2.23
654.455	7.23
654.488	-4.77
654.521	-15.77
654.553	-14.77
654.586	14.23
654.619	12.23
654.652	2.23
654.685	12.23
654.718	11.23
654.751	-1.77
654.783	-8.77
654.816	12.23
654.849	0.23
654.882	-1.77
654.915	-4.77
654.948	14.23
654.98	-6.77
655.013	10.23
655.046	3.23
655.079	-9.77
655.112	14.23
655.144	-4.77
655.177	2.23
655.21	18.23
655.243	26.23
655.276	10.23
655.308	11.23
655.341	4.23
655.374	4.23
655.407	1.23
655.44	15.23
655.472	15.23
655.505	20.23
655.538	1.23
655.571	19.23
655.603	40.23
655.636	-9.77
655.669	9.23
655.702	-7.77
655.734	1.23
655.767	10.23
655.8	20.23
655.833	24.23
655.865	31.23
655.898	18.23
655.931	14.23
655.964	3.23
655.996	27.23
656.029	29.23
656.062	33.23
656.095	42.23
656.127	80.23
656.16	204.23
656.193	620.23
656.225	957.23
656.258	543.23
656.291	208.23
656.324	172.23
656.356	349.23
656.389	776.23
656.422	682.23
656.454	236.23
656.487	80.23
656.52	35.23
656.552	20.23
656.585	27.23
656.618	21.23
656.65	20.23
656.683	-7.77
656.716	4.23
656.748	7.23
656.781	-2.77
656.814	-8.77
656.846	2.23
656.879	-13.77
656.912	1.23
656.944	-12.77
656.977	-14.77
657.01	-2.77
657.042	0.23
657.075	24.23
657.108	5.23
657.14	9.23
657.173	31.23
657.205	29.23
657.238	11.23
657.271	2.23
657.303	-13.77
657.336	9.23
657.369	-0.77
657.401	-1.77
657.434	0.23
657.466	6.23
657.499	-2.77
657.532	22.23
657.564	26.23
657.597	-5.77
657.629	4.23
657.662	0.23
657.694	-3.77
657.727	-24.77
657.76	20.23
657.792	-6.77
657.825	8.23
657.857	12.23
657.89	7.23
657.922	4.23
657.955	-1.77
657.987	-1.77
658.02	13.23
658.053	15.23
658.085	-1.77
658.118	12.23
658.15	26.23
658.183	20.23
658.215	-10.77
658.248	-10.77
658.28	18.23
658.313	17.23
658.345	22.23
658.378	21.23
658.41	-8.77
658.443	12.23
658.475	-4.77
658.508	-5.77
658.54	-9.77
658.573	-10.77
658.605	10.23
658.638	8.23
658.67	-0.77
658.703	-3.77
658.735	-13.77
658.768	2.23
658.8	3.23
658.833	16.23
658.865	3.23
658.898	8.23
658.93	-7.77
658.963	-3.77
658.995	-13.77
659.028	-4.77
659.06	-1.77
659.092	6.23
659.125	-1.77
659.157	-6.77
659.19	-22.77
659.222	0.23
659.255	10.23
659.287	4.23
659.32	3.23
659.352	7.23
659.384	11.23
659.417	3.23
659.449	-1.77
659.482	-0.77
659.514	-19.77
659.546	-1.77
659.579	-5.77
659.611	1.23
659.644	3.23
659.676	-11.77
659.708	8.23
659.741	0.23
659.773	3.23
659.806	-0.77
659.838	-5.77
659.87	-8.77
659.903	4.23
659.935	4.23
659.967	7.23
660	9.23
660.032	-7.77
660.065	17.23
660.097	7.23
660.129	15.23
660.162	2.23
660.194	8.23
660.226	4.23
660.259	11.23
660.291	-4.77
660.323	-8.77
660.356	10.23
660.388	0.23
660.42	0.23
660.453	25.23
660.485	0.23
660.517	21.23
660.55	12.23
660.582	6.23
660.614	11.23
660.647	-11.77
660.679	-13.77
660.711	19.23
660.743	-6.77
660.776	-3.77
660.808	-2.77
660.84	3.23
660.873	-4.77
660.905	-7.77
660.937	6.23
660.969	10.23
661.002	-0.77
661.034	21.23
661.066	-3.77
661.099	-5.77
661.131	15.23
661.163	15.23
661.195	4.23
661.228	10.23
661.26	5.23
661.292	-2.77
661.324	6.23
661.357	14.23
661.389	15.23
661.421	11.23
661.453	15.23
661.485	23.23
661.518	13.23
661.55	-3.77
661.582	-0.77
661.614	-0.77
661.647	13.23
661.679	5.23
661.711	1.23
661.743	-1.77
661.775	6.23
661.808	28.23
661.84	3.23
661.872	0.23
661.904	4.23
661.936	-2.77
661.969	5.23
662.001	-3.77
662.033	-6.77
662.065	-10.77
662.097	21.23
662.129	23.23
662.162	3.23
662.194	11.23
662.226	2.23
662.258	20.23
662.29	2.23
662.322	-14.77
662.355	-11.77
662.387	8.23
662.419	7.23
662.451	14.23
662.483	-2.77
662.515	-3.77
662.547	-0.77
662.58	10.23
662.612	11.23
662.644	-6.77
662.676	4.23
662.708	15.23
662.74	1.23
662.772	2.23
662.804	4.23
662.836	2.23
662.869	-1.77
662.901	7.23
662.933	-10.77
662.965	10.23
662.997	7.23
663.029	-11.77
663.061	-11.77
663.093	7.23
663.125	17.23
663.157	13.23
663.189	6.23
663.221	11.23
663.254	-3.77
663.286	-8.77
663.318	-1.77
663.35	-0.77
663.382	-2.77
663.414	7.23
663.446	-1.77
663.478	-4.77
663.51	17.23
663.542	-18.77
663.574	4.23
663.606	13.23
663.638	-8.77
663.67	-5.77
663.702	-4.77
663.734	-4.77
663.766	3.23
663.798	-1.77
663.83	13.23
663.862	3.23
663.894	26.23
663.926	-1.77
663.958	-0.77
663.99	6.23
664.022	-2.77
664.054	8.23
664.086	-4.77
664.118	13.23
664.15	-8.77
664.182	2.23
664.214	6.23
664.246	12.23
664.278	1.23
664.31	16.23
664.342	10.23
664.374	-6.77
664.406	-8.77
664.438	-1.77
664.47	19.23
664.502	-4.77
664.534	5.23
664.566	-10.77
664.598	2.23
664.63	7.23
664.662	2.23
664.693	7.23
664.725	1.23
664.757	4.23
664.789	-11.77
664.821	7.23
664.853	11.23
664.885	2.23
664.917	8.23
664.949	15.23
664.981	19.23
665.013	8.23
665.045	-23.77
665.076	7.23
665.108	19.23
665.14	20.23
665.172	-4.77
665.204	-4.77
665.236	7.23
665.268	10.23
665.3	9.23
665.331	-11.77
665.363	14.23
665.395	-5.77
665.427	0.23
665.459	1.23
665.491	8.23
665.523	15.23
665.555	7.23
665.586	2.23
665.618	7.23
665.65	-7.77
665.682	9.23
665.714	-6.77
665.746	0.23
665.777	1.23
665.809	-20.77
665.841	7.23
665.873	8.23
665.905	16.23
665.937	10.23
665.968	-1.77
666	5.23
666.032	9.23
666.064	0.23
666.096	0.23
666.127	6.23
666.159	17.23
666.191	2.23
666.223	7.23
666.255	13.23
666.286	11.23
666.318	18.23
666.35	23.23
666.382	-5.77
666.413	-6.77
666.445	-3.77
666.477	-15.77
666.509	-8.77
666.54	-10.77
666.572	-1.77
666.604	15.23
666.636	9.23
666.667	27.23
666.699	12.23
666.731	23.23
666.763	0.23
666.794	5.23
666.826	9.23
666.858	-21.77
666.89	8.23
666.921	11.23
666.953	12.23
666.985	13.23
667.017	9.23
667.048	-5.77
667.08	-9.77
667.112	-5.77
667.143	-3.77
667.175	12.23
667.207	14.23
667.238	12.23
667.27	0.23
667.302	5.23
667.334	-0.77
667.365	13.23
667.397	15.23
667.429	-8.77
667.46	5.23
667.492	10.23
667.524	-3.77
667.555	-11.77
667.587	8.23
667.619	7.23
667.65	2.23
667.682	14.23
667.714	8.23
667.745	2.23
667.777	11.23
667.808	-4.77
667.84	13.23
667.872	12.23
667.903	15.23
667.935	-14.77
667.967	-1.77
667.998	-1.77
668.03	9.23
668.061	4.23
668.093	-2.77
668.125	-1.77
668.156	11.23
668.188	-15.77
668.22	-3.77
668.251	2.23
668.283	18.23
668.314	14.23
668.346	-5.77
668.377	-0.77
668.409	-21.77
668.441	12.23
668.472	0.23
668.504	-7.77
668.535	15.23
668.567	12.23
668.599	11.23
668.63	7.23
668.662	3.23
668.693	2.23
668.725	8.23
668.756	-0.77
668.788	6.23
668.819	7.23
668.851	9.23
668.882	12.23
668.914	4.23
668.946	-5.77
668.977	10.23
669.009	4.23
669.04	-18.77
669.072	16.23
669.103	18.23
669.135	6.23
669.166	6.23
669.198	12.23
669.229	13.23
669.261	12.23
669.292	-5.77
669.324	-1.77
669.355	10.23
669.387	1.23
669.418	3.23
669.45	-0.77
669.481	8.23
669.513	-3.77
669.544	-5.77
669.576	-11.77
669.607	9.23
669.639	20.23
669.67	0.23
669.701	14.23
669.733	-4.77
669.764	-0.77
669.796	-4.77
669.827	5.23
669.859	0.23
669.89	5.23
669.922	5.23
669.953	5.23
669.985	18.23
670.016	14.23
670.047	0.23
670.079	-4.77
670.11	12.23
670.142	5.23
670.173	7.23
670.204	-5.77
670.236	7.23
670.267	-20.77
670.299	10.23
670.33	-2.77
670.362	22.23
670.393	-6.77
670.424	-0.77
670.456	-6.77
670.487	0.23
670.518	20.23
670.55	5.23
670.581	2.23
670.613	13.23
670.644	-2.77
670.675	-22.77
670.707	-3.77
670.738	11.23
670.769	11.23
670.801	-2.77
670.832	0.23
670.864	-3.77
670.895	16.23
670.926	7.23
670.958	-8.77
670.989	10.23
671.02	-1.77
671.052	0.23
671.083	-5.77
671.114	-1.77
671.146	5.23
671.177	-0.77
671.208	-6.77
671.24	-1.77
671.271	-3.77
671.302	16.23
671.333	22.23
671.365	1.23
671.396	-12.77
671.427	0.23
671.459	4.23
671.49	-2.77
671.521	6.23
671.553	16.23
671.584	12.23
671.615	4.23
671.646	11.23
671.678	5.23
671.709	-16.77
671.74	-19.77
671.771	6.23
671.803	-1.77
671.834	1.23
671.865	-10.77
671.896	16.23
671.928	-8.77
671.959	-1.77
671.99	2.23
672.021	14.23
672.053	18.23
672.084	8.23
672.115	12.23
672.146	20.23
672.178	-20.77
672.209	5.23
672.24	8.23
672.271	24.23
672.303	-0.77
672.334	-3.77
672.365	3.23
672.396	-2.77
672.427	17.23
672.459	27.23
672.49	39.23
672.521	15.23
672.552	19.23
672.583	6.23
672.615	0.23
672.646	11.23
672.677	-6.77
672.708	-1.77
672.739	8.23
672.77	22.23
672.802	19.23
672.833	-3.77
672.864	11.23
672.895	7.23
672.926	-6.77
672.957	-0.77
672.989	6.23
673.02	4.23
673.051	1.23
673.082	-5.77
673.113	-0.77
673.144	13.23
673.175	21.23
673.206	17.23
673.238	-2.77
673.269	0.23
673.3	4.23
673.331	4.23
673.362	2.23
673.393	-0.77
673.424	-1.77
673.455	9.23
673.487	2.23
673.518	20.23
673.549	13.23
673.58	2.23
673.611	9.23
673.642	12.23
673.673	-11.77
673.704	8.23
673.735	2.23
673.766	-1.77
673.797	-5.77
673.828	-5.77
673.86	12.23
673.891	-5.77
673.922	-15.77
673.953	-2.77
673.984	2.23
674.015	17.23
674.046	6.23
674.077	13.23
674.108	5.23
674.139	-2.77
674.17	-7.77
674.201	4.23
674.232	-11.77
674.263	0.23
674.294	-2.77
674.325	-4.77
674.356	14.23
674.387	12.23
674.418	-8.77
674.449	-11.77
674.48	1.23
674.511	-12.77
674.542	9.23
674.573	-2.77
674.604	25.23
674.635	10.23
674.666	4.23
674.697	5.23
674.728	3.23
674.759	6.23
674.79	1.23
674.821	-3.77
674.852	-8.77
674.883	-3.77
674.914	6.23
674.945	17.23
674.976	17.23
675.007	3.23
675.038	-2.77
675.069	-4.77
675.1	-6.77
675.131	5.23
675.162	-11.77
675.193	-14.77
675.224	14.23
675.254	4.23
675.285	27.23
675.316	8.23
675.347	-3.77
675.378	7.23
675.409	0.23
675.44	6.23
675.471	-0.77
675.502	-6.77
675.533	2.23
675.564	8.23
675.595	-6.77
675.625	4.23
675.656	12.23
675.687	9.23
675.718	11.23
675.749	8.23
675.78	12.23
675.811	7.23
675.842	19.23
675.873	7.23
675.903	-24.77
675.934	2.23
675.965	-5.77
675.996	-14.77
676.027	9.23
676.058	-11.77
676.089	-8.77
676.119	-5.77
676.15	3.23
676.181	12.23
676.212	-0.77
676.243	-0.77
676.274	-12.77
676.304	6.23
676.335	-17.77
676.366	-3.77
676.397	6.23
676.428	6.23
676.459	3.23
676.489	14.23
676.52	11.23
676.551	7.23
676.582	13.23
676.613	4.23
676.643	-5.77
676.674	8.23
676.705	-7.77
676.736	4.23
676.767	20.23
676.797	20.23
676.828	23.23
676.859	6.23
676.89	-3.77
676.92	1.23
676.951	-5.77
676.982	2.23
677.013	-4.77
677.044	23.23
677.074	14.23
677.105	1.23
677.136	10.23
677.167	-0.77
677.197	14.23
677.228	4.23
677.259	-21.77
677.289	-4.77
677.32	-4.77
677.351	-12.77
677.382	-1.77
677.412	-4.77
677.443	1.23
677.474	3.23
677.505	-15.77
677.535	15.23
677.566	3.23
677.597	-5.77
677.627	-3.77
677.658	3.23
677.689	9.23
677.72	0.23
677.75	-1.77
677.781	-2.77
677.812	-2.77
677.842	6.23
677.873	7.23
677.904	8.23
677.934	7.23
677.965	-2.77
677.996	-12.77
678.026	7.23
678.057	-10.77
678.088	4.23
678.118	14.23
678.149	14.23
678.18	10.23
678.21	14.23
678.241	12.23
678.272	9.23
678.302	6.23
678.333	23.23
678.363	6.23
678.394	7.23
678.425	-1.77
678.455	10.23
678.486	13.23
678.517	4.23
678.547	4.23
678.578	-1.77
678.608	-12.77
678.639	13.23
678.67	-0.77
678.7	-6.77
678.731	-5.77
678.761	6.23
678.792	-0.77
678.823	11.23
678.853	-6.77
678.884	-7.77
678.914	14.23
678.945	12.23
678.975	12.23
679.006	1.23
679.037	6.23
679.067	18.23
679.098	-2.77
679.128	-12.77
679.159	-1.77
679.189	5.23
679.22	-6.77
679.25	0.23
679.281	-3.77
679.312	-12.77
679.342	7.23
679.373	23.23
679.403	3.23
679.434	7.23
679.464	4.23
679.495	2.23
679.525	10.23
679.556	10.23
679.586	30.23
679.617	5.23
679.647	13.23
679.678	-5.77
679.708	11.23
679.739	-11.77
679.769	7.23
679.8	5.23
679.83	12.23
679.861	7.23
679.891	1.23
679.922	-2.77
679.952	0.23
679.983	5.23
680.013	13.23
680.044	0.23
680.074	16.23
680.105	20.23
680.135	5.23
680.165	21.23
680.196	8.23
680.226	5.23
680.257	3.23
680.287	-3.77
680.318	2.23
680.348	-3.77
680.379	-7.77
680.409	1.23
680.439	0.23
680.47	4.23
680.5	4.23
680.531	0.23
680.561	19.23
680.592	5.23
680.622	11.23
680.652	4.23
680.683	23.23
680.713	4.23
680.744	1.23
680.774	-15.77
680.804	30.23
680.835	-2.77
680.865	-1.77
680.896	27.23
680.926	19.23
680.956	12.23
680.987	1.23
681.017	4.23
681.047	0.23
681.078	-7.77
681.108	-10.77
681.139	11.23
681.169	14.23
681.199	7.23
681.23	0.23
681.26	6.23
681.29	10.23
681.321	-9.77
681.351	9.23
681.381	-4.77
681.412	14.23
681.442	5.23
681.472	4.23
681.503	2.23
681.533	1.23
681.563	3.23
681.594	13.23
681.624	16.23
681.654	10.23
681.685	8.23
681.715	11.23
681.745	9.23
681.775	-2.77
681.806	0.23
681.836	-1.77
681.866	-7.77
681.897	3.23
681.927	-3.77
681.957	-27.77
681.987	-0.77
682.018	-2.77
682.048	7.23
682.078	-0.77
682.109	9.23
682.139	7.23
682.169	22.23
682.199	18.23
682.23	-7.77
682.26	-6.77
682.29	-7.77
682.32	5.23
682.351	5.23
682.381	12.23
682.411	8.23
682.441	-3.77
682.472	0.23
682.502	10.23
682.532	13.23
682.562	11.23
682.592	14.23
682.623	14.23
682.653	-9.77
682.683	-0.77
