Data from HighRes_H2D2_15_04_11_07_2024_HR4C61891__92__15-05-43-642.txt Node

Date: Thu Nov 07 15:05:43 EST 2024
User: crc00042
Spectrometer: HR4C6189
Trigger mode: 4
Integration Time (sec): 1.000000E-1
Scans to average: 1
Electric dark correction enabled: true
Nonlinearity correction enabled: false
Boxcar width: 0
XAxis mode: Wavelengths
Number of Pixels in Spectrum: 3648
>>>>>Begin Spectral Data<<<<<
639.567	-107.15
639.602	-107.15
639.636	-107.15
639.67	-41.15
639.704	-4.15
639.738	-0.15
639.773	2.85
639.807	-17.15
639.841	-0.15
639.875	9.85
639.909	-3.15
639.943	-9.15
639.978	-20.15
640.012	9.85
640.046	19.85
640.08	3.85
640.114	5.85
640.148	-2.15
640.182	6.85
640.217	3.85
640.251	-5.15
640.285	10.85
640.319	-13.15
640.353	-2.15
640.387	18.85
640.421	7.85
640.455	6.85
640.49	-14.15
640.524	1.85
640.558	7.85
640.592	-17.15
640.626	1.85
640.66	11.85
640.694	-4.15
640.728	9.85
640.762	20.85
640.796	26.85
640.83	14.85
640.865	0.85
640.899	-5.15
640.933	9.85
640.967	4.85
641.001	-5.15
641.035	4.85
641.069	-12.15
641.103	-6.15
641.137	-0.15
641.171	-8.15
641.205	15.85
641.239	3.85
641.273	11.85
641.307	11.85
641.341	-5.15
641.375	-4.15
641.409	-12.15
641.443	-9.15
641.477	9.85
641.511	10.85
641.545	0.85
641.579	-5.15
641.614	-4.15
641.648	9.85
641.682	-6.15
641.716	0.85
641.75	20.85
641.784	-14.15
641.818	4.85
641.852	-4.15
641.886	-2.15
641.919	16.85
641.953	-0.15
641.987	-3.15
642.021	7.85
642.055	3.85
642.089	-4.15
642.123	-9.15
642.157	-0.15
642.191	-18.15
642.225	5.85
642.259	2.85
642.293	8.85
642.327	2.85
642.361	-13.15
642.395	4.85
642.429	15.85
642.463	12.85
642.497	16.85
642.531	15.85
642.565	-2.15
642.599	4.85
642.633	9.85
642.666	21.85
642.7	6.85
642.734	11.85
642.768	-0.15
642.802	12.85
642.836	2.85
642.87	2.85
642.904	-0.15
642.938	8.85
642.972	-3.15
643.005	5.85
643.039	14.85
643.073	-10.15
643.107	5.85
643.141	13.85
643.175	8.85
643.209	6.85
643.243	-0.15
643.276	1.85
643.31	-0.15
643.344	-4.15
643.378	-5.15
643.412	16.85
643.446	9.85
643.48	-5.15
643.513	10.85
643.547	-0.15
643.581	-11.15
643.615	9.85
643.649	-2.15
643.683	8.85
643.716	1.85
643.75	21.85
643.784	-21.15
643.818	11.85
643.852	15.85
643.886	15.85
643.919	0.85
643.953	-0.15
643.987	-3.15
644.021	4.85
644.055	-2.15
644.088	-4.15
644.122	-1.15
644.156	-5.15
644.19	-2.15
644.224	-7.15
644.257	0.85
644.291	4.85
644.325	-12.15
644.359	-8.15
644.392	8.85
644.426	10.85
644.46	-1.15
644.494	12.85
644.527	-2.15
644.561	14.85
644.595	-6.15
644.629	10.85
644.662	4.85
644.696	12.85
644.73	23.85
644.764	13.85
644.797	-2.15
644.831	-3.15
644.865	5.85
644.899	8.85
644.932	17.85
644.966	2.85
645	13.85
645.033	5.85
645.067	-2.15
645.101	3.85
645.135	12.85
645.168	9.85
645.202	4.85
645.236	-4.15
645.269	13.85
645.303	7.85
645.337	-5.15
645.37	2.85
645.404	0.85
645.438	-1.15
645.471	6.85
645.505	8.85
645.539	-9.15
645.572	-18.15
645.606	-15.15
645.64	-2.15
645.673	-1.15
645.707	17.85
645.741	11.85
645.774	-9.15
645.808	4.85
645.842	-16.15
645.875	4.85
645.909	-6.15
645.943	-7.15
645.976	12.85
646.01	12.85
646.043	20.85
646.077	14.85
646.111	11.85
646.144	11.85
646.178	25.85
646.212	-24.15
646.245	-4.15
646.279	7.85
646.312	0.85
646.346	20.85
646.38	14.85
646.413	27.85
646.447	15.85
646.48	8.85
646.514	14.85
646.547	25.85
646.581	8.85
646.615	7.85
646.648	-6.15
646.682	7.85
646.715	5.85
646.749	15.85
646.782	8.85
646.816	-11.15
646.85	-0.15
646.883	-2.15
646.917	0.85
646.95	1.85
646.984	2.85
647.017	-16.15
647.051	7.85
647.084	-1.15
647.118	-13.15
647.151	7.85
647.185	8.85
647.218	-14.15
647.252	8.85
647.285	-20.15
647.319	-2.15
647.353	10.85
647.386	8.85
647.42	9.85
647.453	-5.15
647.487	-3.15
647.52	10.85
647.553	13.85
647.587	12.85
647.62	3.85
647.654	9.85
647.687	3.85
647.721	12.85
647.754	19.85
647.788	-7.15
647.821	4.85
647.855	1.85
647.888	21.85
647.922	27.85
647.955	16.85
647.989	0.85
648.022	0.85
648.055	19.85
648.089	8.85
648.122	16.85
648.156	7.85
648.189	-4.15
648.223	15.85
648.256	9.85
648.29	12.85
648.323	2.85
648.356	9.85
648.39	7.85
648.423	0.85
648.457	-4.15
648.49	16.85
648.523	10.85
648.557	-1.15
648.59	-5.15
648.624	9.85
648.657	-12.15
648.69	19.85
648.724	15.85
648.757	10.85
648.791	11.85
648.824	6.85
648.857	29.85
648.891	7.85
648.924	4.85
648.957	17.85
648.991	-5.15
649.024	12.85
649.057	5.85
649.091	-0.15
649.124	9.85
649.158	7.85
649.191	19.85
649.224	-14.15
649.258	3.85
649.291	11.85
649.324	14.85
649.358	5.85
649.391	16.85
649.424	8.85
649.458	18.85
649.491	15.85
649.524	0.85
649.557	7.85
649.591	0.85
649.624	16.85
649.657	11.85
649.691	7.85
649.724	-10.15
649.757	11.85
649.791	2.85
649.824	21.85
649.857	24.85
649.89	12.85
649.924	-15.15
649.957	-13.15
649.99	-14.15
650.023	-4.15
650.057	1.85
650.09	4.85
650.123	9.85
650.157	17.85
650.19	8.85
650.223	6.85
650.256	-14.15
650.29	3.85
650.323	7.85
650.356	21.85
650.389	-12.15
650.423	-10.15
650.456	11.85
650.489	4.85
650.522	7.85
650.555	21.85
650.589	10.85
650.622	11.85
650.655	3.85
650.688	-6.15
650.721	-7.15
650.755	1.85
650.788	19.85
650.821	12.85
650.854	9.85
650.887	16.85
650.921	-6.15
650.954	-7.15
650.987	-2.15
651.02	-3.15
651.053	-3.15
651.087	-1.15
651.12	7.85
651.153	13.85
651.186	11.85
651.219	8.85
651.252	12.85
651.286	5.85
651.319	-2.15
651.352	16.85
651.385	12.85
651.418	7.85
651.451	14.85
651.484	-3.15
651.518	9.85
651.551	22.85
651.584	-28.15
651.617	8.85
651.65	15.85
651.683	16.85
651.716	16.85
651.749	-12.15
651.783	4.85
651.816	4.85
651.849	5.85
651.882	7.85
651.915	-5.15
651.948	-4.15
651.981	-4.15
652.014	1.85
652.047	-5.15
652.08	-3.15
652.114	6.85
652.147	-7.15
652.18	24.85
652.213	35.85
652.246	10.85
652.279	-6.15
652.312	7.85
652.345	8.85
652.378	3.85
652.411	20.85
652.444	10.85
652.477	8.85
652.51	-12.15
652.543	5.85
652.576	1.85
652.609	2.85
652.642	7.85
652.675	10.85
652.709	14.85
652.742	7.85
652.775	11.85
652.808	-2.15
652.841	-0.15
652.874	-8.15
652.907	3.85
652.94	10.85
652.973	-21.15
653.006	-4.15
653.039	3.85
653.072	18.85
653.105	8.85
653.138	-9.15
653.171	-4.15
653.204	3.85
653.237	12.85
653.27	1.85
653.303	6.85
653.336	3.85
653.368	2.85
653.401	-1.15
653.434	1.85
653.467	14.85
653.5	-8.15
653.533	-2.15
653.566	8.85
653.599	8.85
653.632	10.85
653.665	10.85
653.698	-12.15
653.731	-10.15
653.764	4.85
653.797	-5.15
653.83	-2.15
653.863	-1.15
653.896	-8.15
653.929	1.85
653.961	13.85
653.994	10.85
654.027	-6.15
654.06	1.85
654.093	-0.15
654.126	-1.15
654.159	-0.15
654.192	1.85
654.225	-14.15
654.258	-18.15
654.29	12.85
654.323	4.85
654.356	4.85
654.389	8.85
654.422	-2.15
654.455	8.85
654.488	8.85
654.521	-17.15
654.553	2.85
654.586	15.85
654.619	13.85
654.652	9.85
654.685	10.85
654.718	8.85
654.751	0.85
654.783	0.85
654.816	22.85
654.849	18.85
654.882	-8.15
654.915	-16.15
654.948	16.85
654.98	15.85
655.013	3.85
655.046	7.85
655.079	17.85
655.112	4.85
655.144	-13.15
655.177	9.85
655.21	20.85
655.243	26.85
655.276	15.85
655.308	5.85
655.341	-12.15
655.374	25.85
655.407	0.85
655.44	-1.15
655.472	31.85
655.505	3.85
655.538	8.85
655.571	21.85
655.603	2.85
655.636	-7.15
655.669	14.85
655.702	-0.15
655.734	3.85
655.767	12.85
655.8	1.85
655.833	7.85
655.865	25.85
655.898	15.85
655.931	23.85
655.964	16.85
655.996	32.85
656.029	33.85
656.062	32.85
656.095	42.85
656.127	74.85
656.16	198.85
656.193	615.85
656.225	966.85
656.258	541.85
656.291	219.85
656.324	171.85
656.356	374.85
656.389	777.85
656.422	673.85
656.454	251.85
656.487	83.85
656.52	43.85
656.552	19.85
656.585	2.85
656.618	6.85
656.65	13.85
656.683	1.85
656.716	18.85
656.748	10.85
656.781	-6.15
656.814	-11.15
656.846	10.85
656.879	-1.15
656.912	8.85
656.944	3.85
656.977	-8.15
657.01	4.85
657.042	11.85
657.075	13.85
657.108	14.85
657.14	23.85
657.173	23.85
657.205	39.85
657.238	27.85
657.271	4.85
657.303	5.85
657.336	5.85
657.369	-10.15
657.401	-11.15
657.434	11.85
657.466	4.85
657.499	-0.15
657.532	5.85
657.564	9.85
657.597	-7.15
657.629	18.85
657.662	-14.15
657.694	1.85
657.727	-12.15
657.76	-1.15
657.792	-12.15
657.825	6.85
657.857	-0.15
657.89	-3.15
657.922	-9.15
657.955	-11.15
657.987	1.85
658.02	11.85
658.053	16.85
658.085	-3.15
658.118	-2.15
658.15	12.85
658.183	12.85
658.215	-3.15
658.248	-5.15
658.28	2.85
658.313	20.85
658.345	10.85
658.378	10.85
658.41	0.85
658.443	-5.15
658.475	16.85
658.508	-7.15
658.54	-5.15
658.573	-5.15
658.605	-0.15
658.638	-5.15
658.67	-7.15
658.703	1.85
658.735	-4.15
658.768	11.85
658.8	-12.15
658.833	10.85
658.865	5.85
658.898	14.85
658.93	9.85
658.963	0.85
658.995	-19.15
659.028	-1.15
659.06	-15.15
659.092	-3.15
659.125	-0.15
659.157	9.85
659.19	-17.15
659.222	-0.15
659.255	5.85
659.287	18.85
659.32	-13.15
659.352	24.85
659.384	11.85
659.417	-1.15
659.449	4.85
659.482	9.85
659.514	-14.15
659.546	-4.15
659.579	-13.15
659.611	5.85
659.644	-13.15
659.676	-11.15
659.708	-6.15
659.741	-4.15
659.773	15.85
659.806	4.85
659.838	4.85
659.87	8.85
659.903	-4.15
659.935	16.85
659.967	3.85
660	6.85
660.032	-7.15
660.065	14.85
660.097	14.85
660.129	-3.15
660.162	-10.15
660.194	4.85
660.226	13.85
660.259	16.85
660.291	-3.15
660.323	11.85
660.356	5.85
660.388	11.85
660.42	-5.15
660.453	4.85
660.485	10.85
660.517	23.85
660.55	28.85
660.582	-1.15
660.614	11.85
660.647	-5.15
660.679	-19.15
660.711	2.85
660.743	-13.15
660.776	-6.15
660.808	-0.15
660.84	-15.15
660.873	13.85
660.905	-7.15
660.937	0.85
660.969	-4.15
661.002	9.85
661.034	19.85
661.066	1.85
661.099	-1.15
661.131	6.85
661.163	5.85
661.195	3.85
661.228	13.85
661.26	-5.15
661.292	7.85
661.324	5.85
661.357	14.85
661.389	17.85
661.421	14.85
661.453	-6.15
661.485	-10.15
661.518	3.85
661.55	-17.15
661.582	-17.15
661.614	5.85
661.647	14.85
661.679	11.85
661.711	2.85
661.743	-11.15
661.775	10.85
661.808	14.85
661.84	-3.15
661.872	2.85
661.904	18.85
661.936	-6.15
661.969	-16.15
662.001	-6.15
662.033	-1.15
662.065	-7.15
662.097	18.85
662.129	20.85
662.162	-4.15
662.194	11.85
662.226	2.85
662.258	1.85
662.29	7.85
662.322	-23.15
662.355	-22.15
662.387	24.85
662.419	12.85
662.451	19.85
662.483	15.85
662.515	0.85
662.547	-0.15
662.58	9.85
662.612	1.85
662.644	-9.15
662.676	1.85
662.708	11.85
662.74	-6.15
662.772	-5.15
662.804	13.85
662.836	18.85
662.869	3.85
662.901	15.85
662.933	11.85
662.965	22.85
662.997	8.85
663.029	-8.15
663.061	10.85
663.093	10.85
663.125	5.85
663.157	11.85
663.189	9.85
663.221	8.85
663.254	-5.15
663.286	7.85
663.318	3.85
663.35	2.85
663.382	11.85
663.414	21.85
663.446	22.85
663.478	-3.15
663.51	16.85
663.542	7.85
663.574	-4.15
663.606	7.85
663.638	-0.15
663.67	-4.15
663.702	9.85
663.734	-3.15
663.766	-4.15
663.798	-15.15
663.83	10.85
663.862	15.85
663.894	12.85
663.926	4.85
663.958	21.85
663.99	13.85
664.022	3.85
664.054	6.85
664.086	0.85
664.118	-0.15
664.15	-10.15
664.182	6.85
664.214	0.85
664.246	12.85
664.278	13.85
664.31	14.85
664.342	3.85
664.374	9.85
664.406	-1.15
664.438	-5.15
664.47	5.85
664.502	2.85
664.534	16.85
664.566	-5.15
664.598	20.85
664.63	-3.15
664.662	3.85
664.693	-5.15
664.725	-0.15
664.757	-5.15
664.789	-15.15
664.821	-3.15
664.853	13.85
664.885	2.85
664.917	-6.15
664.949	16.85
664.981	14.85
665.013	11.85
665.045	12.85
665.076	-1.15
665.108	11.85
665.14	4.85
665.172	-11.15
665.204	6.85
665.236	7.85
665.268	13.85
665.3	-4.15
665.331	-3.15
665.363	11.85
665.395	-13.15
665.427	-16.15
665.459	26.85
665.491	1.85
665.523	4.85
665.555	-4.15
665.586	5.85
665.618	-2.15
665.65	-10.15
665.682	4.85
665.714	20.85
665.746	-6.15
665.777	8.85
665.809	0.85
665.841	-2.15
665.873	11.85
665.905	5.85
665.937	18.85
665.968	1.85
666	4.85
666.032	20.85
666.064	-10.15
666.096	5.85
666.127	9.85
666.159	8.85
666.191	24.85
666.223	12.85
666.255	1.85
666.286	11.85
666.318	4.85
666.35	19.85
666.382	7.85
666.413	-13.15
666.445	3.85
666.477	-17.15
666.509	-6.15
666.54	13.85
666.572	10.85
666.604	2.85
666.636	-5.15
666.667	29.85
666.699	23.85
666.731	19.85
666.763	-12.15
666.794	-1.15
666.826	3.85
666.858	-14.15
666.89	13.85
666.921	5.85
666.953	-5.15
666.985	2.85
667.017	18.85
667.048	20.85
667.08	10.85
667.112	-7.15
667.143	-8.15
667.175	14.85
667.207	17.85
667.238	14.85
667.27	20.85
667.302	14.85
667.334	8.85
667.365	17.85
667.397	8.85
667.429	-4.15
667.46	29.85
667.492	14.85
667.524	-1.15
667.555	0.85
667.587	1.85
667.619	-3.15
667.65	-7.15
667.682	-0.15
667.714	15.85
667.745	-0.15
667.777	6.85
667.808	7.85
667.84	-1.15
667.872	4.85
667.903	30.85
667.935	27.85
667.967	4.85
667.998	-4.15
668.03	-11.15
668.061	22.85
668.093	-2.15
668.125	1.85
668.156	-1.15
668.188	-6.15
668.22	-9.15
668.251	20.85
668.283	11.85
668.314	10.85
668.346	3.85
668.377	12.85
668.409	6.85
668.441	21.85
668.472	2.85
668.504	-1.15
668.535	11.85
668.567	28.85
668.599	7.85
668.63	0.85
668.662	10.85
668.693	12.85
668.725	10.85
668.756	13.85
668.788	0.85
668.819	6.85
668.851	5.85
668.882	-2.15
668.914	5.85
668.946	-2.15
668.977	11.85
669.009	-8.15
669.04	-19.15
669.072	5.85
669.103	-1.15
669.135	-7.15
669.166	10.85
669.198	6.85
669.229	11.85
669.261	2.85
669.292	9.85
669.324	7.85
669.355	-4.15
669.387	-5.15
669.418	16.85
669.45	-7.15
669.481	8.85
669.513	5.85
669.544	11.85
669.576	2.85
669.607	14.85
669.639	13.85
669.67	2.85
669.701	3.85
669.733	2.85
669.764	2.85
669.796	8.85
669.827	2.85
669.859	-19.15
669.89	-0.15
669.922	7.85
669.953	6.85
669.985	-1.15
670.016	21.85
670.047	7.85
670.079	18.85
670.11	12.85
670.142	14.85
670.173	-6.15
670.204	3.85
670.236	9.85
670.267	0.85
670.299	16.85
670.33	10.85
670.362	16.85
670.393	-8.15
670.424	-3.15
670.456	-6.15
670.487	13.85
670.518	7.85
670.55	10.85
670.581	5.85
670.613	9.85
670.644	-4.15
670.675	-5.15
670.707	-6.15
670.738	-6.15
670.769	5.85
670.801	-3.15
670.832	0.85
670.864	5.85
670.895	16.85
670.926	1.85
670.958	3.85
670.989	4.85
671.02	2.85
671.052	11.85
671.083	2.85
671.114	6.85
671.146	2.85
671.177	10.85
671.208	0.85
671.24	-5.15
671.271	-8.15
671.302	-6.15
671.333	-3.15
671.365	-3.15
671.396	-7.15
671.427	1.85
671.459	17.85
671.49	16.85
671.521	13.85
671.553	-0.15
671.584	3.85
671.615	6.85
671.646	-2.15
671.678	4.85
671.709	2.85
671.74	3.85
671.771	-15.15
671.803	3.85
671.834	2.85
671.865	7.85
671.896	9.85
671.928	-2.15
671.959	-9.15
671.99	-4.15
672.021	8.85
672.053	-4.15
672.084	17.85
672.115	3.85
672.146	21.85
672.178	-16.15
672.209	-11.15
672.24	14.85
672.271	30.85
672.303	9.85
672.334	11.85
672.365	2.85
672.396	12.85
672.427	25.85
672.459	7.85
672.49	10.85
672.521	0.85
672.552	3.85
672.583	5.85
672.615	3.85
672.646	3.85
672.677	-7.15
672.708	-17.15
672.739	2.85
672.77	18.85
672.802	9.85
672.833	4.85
672.864	6.85
672.895	-12.15
672.926	3.85
672.957	-7.15
672.989	5.85
673.02	7.85
673.051	-14.15
673.082	21.85
673.113	11.85
673.144	20.85
673.175	4.85
673.206	3.85
673.238	0.85
673.269	2.85
673.3	-0.15
673.331	-8.15
673.362	-7.15
673.393	3.85
673.424	15.85
673.455	19.85
673.487	13.85
673.518	23.85
673.549	13.85
673.58	13.85
673.611	5.85
673.642	6.85
673.673	-7.15
673.704	4.85
673.735	-7.15
673.766	8.85
673.797	-14.15
673.828	-0.15
673.86	-12.15
673.891	2.85
673.922	-1.15
673.953	-0.15
673.984	-0.15
674.015	-7.15
674.046	1.85
674.077	15.85
674.108	-0.15
674.139	-1.15
674.17	7.85
674.201	-19.15
674.232	-3.15
674.263	13.85
674.294	11.85
674.325	-7.15
674.356	17.85
674.387	19.85
674.418	16.85
674.449	-2.15
674.48	3.85
674.511	13.85
674.542	11.85
674.573	-4.15
674.604	11.85
674.635	7.85
674.666	2.85
674.697	-6.15
674.728	-1.15
674.759	-11.15
674.79	-9.15
674.821	5.85
674.852	-3.15
674.883	-9.15
674.914	-2.15
674.945	-1.15
674.976	3.85
675.007	-3.15
675.038	-5.15
675.069	-14.15
675.1	-8.15
675.131	-11.15
675.162	2.85
675.193	-7.15
675.224	6.85
675.254	0.85
675.285	-0.15
675.316	16.85
675.347	11.85
675.378	-4.15
675.409	-1.15
675.44	14.85
675.471	14.85
675.502	-0.15
675.533	2.85
675.564	0.85
675.595	-2.15
675.625	16.85
675.656	7.85
675.687	14.85
675.718	-0.15
675.749	12.85
675.78	0.85
675.811	4.85
675.842	9.85
675.873	7.85
675.903	-8.15
675.934	1.85
675.965	-13.15
675.996	-9.15
676.027	7.85
676.058	-6.15
676.089	12.85
676.119	15.85
676.15	-2.15
676.181	5.85
676.212	3.85
676.243	16.85
676.274	-1.15
676.304	17.85
676.335	8.85
676.366	14.85
676.397	-4.15
676.428	-5.15
676.459	-0.15
676.489	14.85
676.52	13.85
676.551	9.85
676.582	0.85
676.613	1.85
676.643	-14.15
676.674	-2.15
676.705	-0.15
676.736	7.85
676.767	18.85
676.797	18.85
676.828	2.85
676.859	-1.15
676.89	-1.15
676.92	8.85
676.951	22.85
676.982	15.85
677.013	6.85
677.044	17.85
677.074	4.85
677.105	-4.15
677.136	9.85
677.167	12.85
677.197	13.85
677.228	-11.15
677.259	-7.15
677.289	11.85
677.32	-5.15
677.351	-12.15
677.382	0.85
677.412	-2.15
677.443	12.85
677.474	11.85
677.505	-3.15
677.535	10.85
677.566	-7.15
677.597	-5.15
677.627	-2.15
677.658	-11.15
677.689	-1.15
677.72	5.85
677.75	-4.15
677.781	11.85
677.812	6.85
677.842	11.85
677.873	0.85
677.904	-0.15
677.934	6.85
677.965	-11.15
677.996	-6.15
678.026	-1.15
678.057	-1.15
678.088	-3.15
678.118	-2.15
678.149	8.85
678.18	4.85
678.21	1.85
678.241	4.85
678.272	-0.15
678.302	5.85
678.333	2.85
678.363	6.85
678.394	1.85
678.425	19.85
678.455	10.85
678.486	6.85
678.517	4.85
678.547	9.85
678.578	-1.15
678.608	-11.15
678.639	16.85
678.67	2.85
678.7	6.85
678.731	6.85
678.761	-0.15
678.792	10.85
678.823	5.85
678.853	10.85
678.884	-5.15
678.914	10.85
678.945	8.85
678.975	14.85
679.006	9.85
679.037	-5.15
679.067	21.85
679.098	3.85
679.128	-4.15
679.159	0.85
679.189	-2.15
679.22	-4.15
679.25	8.85
679.281	-1.15
679.312	2.85
679.342	-2.15
679.373	21.85
679.403	1.85
679.434	18.85
679.464	5.85
679.495	4.85
679.525	4.85
679.556	8.85
679.586	-1.15
679.617	4.85
679.647	6.85
679.678	1.85
679.708	-3.15
679.739	-5.15
679.769	-0.15
679.8	11.85
679.83	9.85
679.861	28.85
679.891	11.85
679.922	-4.15
679.952	15.85
679.983	3.85
680.013	-5.15
680.044	-5.15
680.074	20.85
680.105	7.85
680.135	1.85
680.165	7.85
680.196	8.85
680.226	0.85
680.257	5.85
680.287	-11.15
680.318	-7.15
680.348	-10.15
680.379	16.85
680.409	17.85
680.439	14.85
680.47	-2.15
680.5	-16.15
680.531	-14.15
680.561	23.85
680.592	9.85
680.622	18.85
680.652	-4.15
680.683	22.85
680.713	7.85
680.744	0.85
680.774	-7.15
680.804	17.85
680.835	-8.15
680.865	-14.15
680.896	20.85
680.926	12.85
680.956	-4.15
680.987	10.85
681.017	-1.15
681.047	11.85
681.078	-9.15
681.108	-2.15
681.139	3.85
681.169	4.85
681.199	13.85
681.23	-2.15
681.26	-2.15
681.29	3.85
681.321	-6.15
681.351	6.85
681.381	-12.15
681.412	-3.15
681.442	-6.15
681.472	18.85
681.503	28.85
681.533	12.85
681.563	10.85
681.594	7.85
681.624	7.85
681.654	-8.15
681.685	6.85
681.715	3.85
681.745	-5.15
681.775	-14.15
681.806	2.85
681.836	7.85
681.866	1.85
681.897	1.85
681.927	-2.15
681.957	-11.15
681.987	3.85
682.018	-0.15
682.048	3.85
682.078	9.85
682.109	25.85
682.139	13.85
682.169	8.85
682.199	2.85
682.23	-1.15
682.26	9.85
682.29	0.85
682.32	4.85
682.351	7.85
682.381	1.85
682.411	-0.15
682.441	4.85
682.472	-12.15
682.502	-10.15
682.532	8.85
682.562	9.85
682.592	11.85
682.623	21.85
682.653	-5.15
