Data from HighRes_H2D2_15_04_11_07_2024_HR4C61891__1__15-05-34-543.txt Node

Date: Thu Nov 07 15:05:34 EST 2024
User: crc00042
Spectrometer: HR4C6189
Trigger mode: 4
Integration Time (sec): 1.000000E-1
Scans to average: 1
Electric dark correction enabled: true
Nonlinearity correction enabled: false
Boxcar width: 0
XAxis mode: Wavelengths
Number of Pixels in Spectrum: 3648
>>>>>Begin Spectral Data<<<<<
639.567	-82.69
639.602	-82.69
639.636	-82.69
639.67	-38.69
639.704	-11.69
639.738	-0.69
639.773	8.31
639.807	-14.69
639.841	-2.69
639.875	11.31
639.909	7.31
639.943	-3.69
639.978	1.31
640.012	1.31
640.046	1.31
640.08	10.31
640.114	-9.69
640.148	-9.69
640.182	-8.69
640.217	-17.69
640.251	27.31
640.285	24.31
640.319	1.31
640.353	11.31
640.387	11.31
640.421	-5.69
640.455	0.31
640.49	16.31
640.524	9.31
640.558	14.31
640.592	12.31
640.626	1.31
640.66	-0.69
640.694	-6.69
640.728	6.31
640.762	-8.69
640.796	21.31
640.83	19.31
640.865	-4.69
640.899	7.31
640.933	7.31
640.967	8.31
641.001	13.31
641.035	0.31
641.069	-4.69
641.103	-0.69
641.137	1.31
641.171	-3.69
641.205	12.31
641.239	5.31
641.273	18.31
641.307	5.31
641.341	3.31
641.375	3.31
641.409	-12.69
641.443	3.31
641.477	-9.69
641.511	13.31
641.545	7.31
641.579	11.31
641.614	23.31
641.648	20.31
641.682	2.31
641.716	13.31
641.75	2.31
641.784	-13.69
641.818	0.31
641.852	17.31
641.886	11.31
641.919	23.31
641.953	2.31
641.987	-13.69
642.021	15.31
642.055	14.31
642.089	12.31
642.123	-17.69
642.157	9.31
642.191	-0.69
642.225	-0.69
642.259	1.31
642.293	13.31
642.327	0.31
642.361	1.31
642.395	6.31
642.429	23.31
642.463	3.31
642.497	0.31
642.531	-2.69
642.565	-5.69
642.599	10.31
642.633	-10.69
642.666	17.31
642.7	4.31
642.734	30.31
642.768	4.31
642.802	4.31
642.836	8.31
642.87	2.31
642.904	9.31
642.938	3.31
642.972	-1.69
643.005	12.31
643.039	11.31
643.073	16.31
643.107	12.31
643.141	12.31
643.175	14.31
643.209	-13.69
643.243	-3.69
643.276	13.31
643.31	8.31
643.344	-10.69
643.378	17.31
643.412	13.31
643.446	8.31
643.48	7.31
643.513	15.31
643.547	6.31
643.581	8.31
643.615	17.31
643.649	7.31
643.683	10.31
643.716	11.31
643.75	21.31
643.784	-1.69
643.818	2.31
643.852	9.31
643.886	-2.69
643.919	4.31
643.953	2.31
643.987	9.31
644.021	17.31
644.055	5.31
644.088	-3.69
644.122	-0.69
644.156	-0.69
644.19	14.31
644.224	10.31
644.257	2.31
644.291	21.31
644.325	-0.69
644.359	-6.69
644.392	40.31
644.426	18.31
644.46	22.31
644.494	-7.69
644.527	-6.69
644.561	1.31
644.595	-4.69
644.629	12.31
644.662	7.31
644.696	23.31
644.73	-0.69
644.764	17.31
644.797	-5.69
644.831	9.31
644.865	19.31
644.899	3.31
644.932	34.31
644.966	13.31
645	11.31
645.033	19.31
645.067	-5.69
645.101	6.31
645.135	11.31
645.168	8.31
645.202	-1.69
645.236	1.31
645.269	18.31
645.303	-0.69
645.337	1.31
645.37	8.31
645.404	9.31
645.438	17.31
645.471	8.31
645.505	2.31
645.539	8.31
645.572	2.31
645.606	10.31
645.64	3.31
645.673	11.31
645.707	16.31
645.741	3.31
645.774	4.31
645.808	-3.69
645.842	-16.69
645.875	17.31
645.909	-2.69
645.943	9.31
645.976	7.31
646.01	19.31
646.043	13.31
646.077	17.31
646.111	9.31
646.144	9.31
646.178	4.31
646.212	4.31
646.245	-5.69
646.279	-7.69
646.312	2.31
646.346	15.31
646.38	0.31
646.413	13.31
646.447	2.31
646.48	15.31
646.514	11.31
646.547	0.31
646.581	-4.69
646.615	14.31
646.648	-2.69
646.682	13.31
646.715	13.31
646.749	6.31
646.782	2.31
646.816	8.31
646.85	6.31
646.883	-4.69
646.917	23.31
646.95	8.31
646.984	5.31
647.017	12.31
647.051	13.31
647.084	9.31
647.118	6.31
647.151	6.31
647.185	2.31
647.218	-7.69
647.252	10.31
647.285	-3.69
647.319	11.31
647.353	11.31
647.386	17.31
647.42	0.31
647.453	7.31
647.487	-0.69
647.52	-12.69
647.553	11.31
647.587	-18.69
647.62	-11.69
647.654	-2.69
647.687	17.31
647.721	9.31
647.754	-1.69
647.788	9.31
647.821	-2.69
647.855	18.31
647.888	25.31
647.922	22.31
647.955	10.31
647.989	20.31
648.022	7.31
648.055	11.31
648.089	1.31
648.122	13.31
648.156	3.31
648.189	2.31
648.223	14.31
648.256	9.31
648.29	16.31
648.323	5.31
648.356	4.31
648.39	10.31
648.423	20.31
648.457	12.31
648.49	13.31
648.523	12.31
648.557	-12.69
648.59	3.31
648.624	7.31
648.657	16.31
648.69	16.31
648.724	16.31
648.757	22.31
648.791	14.31
648.824	19.31
648.857	37.31
648.891	-5.69
648.924	9.31
648.957	19.31
648.991	-12.69
649.024	23.31
649.057	3.31
649.091	-1.69
649.124	20.31
649.158	11.31
649.191	19.31
649.224	14.31
649.258	14.31
649.291	11.31
649.324	11.31
649.358	6.31
649.391	16.31
649.424	-1.69
649.458	5.31
649.491	18.31
649.524	11.31
649.557	-2.69
649.591	-3.69
649.624	13.31
649.657	-2.69
649.691	-8.69
649.724	10.31
649.757	11.31
649.791	-12.69
649.824	16.31
649.857	17.31
649.89	-5.69
649.924	-2.69
649.957	1.31
649.99	5.31
650.023	16.31
650.057	9.31
650.09	12.31
650.123	5.31
650.157	28.31
650.19	43.31
650.223	14.31
650.256	-7.69
650.29	-6.69
650.323	6.31
650.356	2.31
650.389	1.31
650.423	-5.69
650.456	13.31
650.489	4.31
650.522	25.31
650.555	24.31
650.589	9.31
650.622	0.31
650.655	17.31
650.688	6.31
650.721	19.31
650.755	30.31
650.788	36.31
650.821	6.31
650.854	14.31
650.887	21.31
650.921	-1.69
650.954	-10.69
650.987	6.31
651.02	7.31
651.053	-11.69
651.087	-4.69
651.12	12.31
651.153	1.31
651.186	5.31
651.219	-18.69
651.252	11.31
651.286	12.31
651.319	4.31
651.352	9.31
651.385	-0.69
651.418	4.31
651.451	11.31
651.484	2.31
651.518	-6.69
651.551	19.31
651.584	-10.69
651.617	13.31
651.65	17.31
651.683	8.31
651.716	-2.69
651.749	-11.69
651.783	1.31
651.816	6.31
651.849	14.31
651.882	12.31
651.915	3.31
651.948	15.31
651.981	17.31
652.014	-0.69
652.047	-15.69
652.08	-15.69
652.114	-1.69
652.147	11.31
652.18	15.31
652.213	42.31
652.246	24.31
652.279	20.31
652.312	7.31
652.345	1.31
652.378	10.31
652.411	17.31
652.444	13.31
652.477	11.31
652.51	1.31
652.543	-4.69
652.576	22.31
652.609	15.31
652.642	1.31
652.675	11.31
652.709	17.31
652.742	-1.69
652.775	4.31
652.808	15.31
652.841	0.31
652.874	-11.69
652.907	5.31
652.94	2.31
652.973	-3.69
653.006	-12.69
653.039	-0.69
653.072	17.31
653.105	-0.69
653.138	6.31
653.171	-18.69
653.204	21.31
653.237	21.31
653.27	10.31
653.303	0.31
653.336	-1.69
653.368	-14.69
653.401	19.31
653.434	-4.69
653.467	14.31
653.5	8.31
653.533	10.31
653.566	8.31
653.599	6.31
653.632	12.31
653.665	3.31
653.698	5.31
653.731	8.31
653.764	12.31
653.797	4.31
653.83	7.31
653.863	9.31
653.896	13.31
653.929	16.31
653.961	20.31
653.994	0.31
654.027	-18.69
654.06	12.31
654.093	11.31
654.126	23.31
654.159	13.31
654.192	12.31
654.225	4.31
654.258	5.31
654.29	9.31
654.323	7.31
654.356	6.31
654.389	4.31
654.422	0.31
654.455	0.31
654.488	-5.69
654.521	1.31
654.553	-7.69
654.586	9.31
654.619	9.31
654.652	6.31
654.685	16.31
654.718	7.31
654.751	-1.69
654.783	-3.69
654.816	6.31
654.849	1.31
654.882	-9.69
654.915	-9.69
654.948	-4.69
654.98	-3.69
655.013	6.31
655.046	0.31
655.079	6.31
655.112	1.31
655.144	-5.69
655.177	9.31
655.21	6.31
655.243	10.31
655.276	13.31
655.308	-1.69
655.341	-3.69
655.374	19.31
655.407	-6.69
655.44	8.31
655.472	12.31
655.505	20.31
655.538	-0.69
655.571	19.31
655.603	3.31
655.636	-3.69
655.669	10.31
655.702	7.31
655.734	-1.69
655.767	15.31
655.8	16.31
655.833	20.31
655.865	25.31
655.898	5.31
655.931	9.31
655.964	16.31
655.996	19.31
656.029	22.31
656.062	19.31
656.095	47.31
656.127	87.31
656.16	225.31
656.193	633.31
656.225	936.31
656.258	558.31
656.291	220.31
656.324	173.31
656.356	373.31
656.389	784.31
656.422	670.31
656.454	239.31
656.487	99.31
656.52	33.31
656.552	-3.69
656.585	4.31
656.618	14.31
656.65	15.31
656.683	14.31
656.716	4.31
656.748	1.31
656.781	-2.69
656.814	4.31
656.846	3.31
656.879	1.31
656.912	12.31
656.944	-19.69
656.977	-2.69
657.01	13.31
657.042	13.31
657.075	12.31
657.108	-3.69
657.14	10.31
657.173	20.31
657.205	26.31
657.238	17.31
657.271	12.31
657.303	7.31
657.336	6.31
657.369	0.31
657.401	0.31
657.434	14.31
657.466	22.31
657.499	13.31
657.532	9.31
657.564	13.31
657.597	6.31
657.629	7.31
657.662	11.31
657.694	-1.69
657.727	-17.69
657.76	18.31
657.792	-7.69
657.825	-0.69
657.857	1.31
657.89	13.31
657.922	29.31
657.955	-1.69
657.987	10.31
658.02	22.31
658.053	26.31
658.085	-1.69
658.118	28.31
658.15	15.31
658.183	11.31
658.215	15.31
658.248	2.31
658.28	-0.69
658.313	24.31
658.345	13.31
658.378	-0.69
658.41	13.31
658.443	27.31
658.475	3.31
658.508	10.31
658.54	0.31
658.573	-11.69
658.605	-0.69
658.638	3.31
658.67	0.31
658.703	10.31
658.735	6.31
658.768	18.31
658.8	-0.69
658.833	13.31
658.865	5.31
658.898	-6.69
658.93	-6.69
658.963	1.31
658.995	-0.69
659.028	13.31
659.06	0.31
659.092	-6.69
659.125	-8.69
659.157	12.31
659.19	1.31
659.222	4.31
659.255	2.31
659.287	-1.69
659.32	1.31
659.352	8.31
659.384	5.31
659.417	9.31
659.449	16.31
659.482	-1.69
659.514	6.31
659.546	-0.69
659.579	-3.69
659.611	8.31
659.644	9.31
659.676	3.31
659.708	-3.69
659.741	10.31
659.773	13.31
659.806	4.31
659.838	10.31
659.87	-0.69
659.903	-7.69
659.935	7.31
659.967	6.31
660	-5.69
660.032	-13.69
660.065	8.31
660.097	1.31
660.129	18.31
660.162	5.31
660.194	16.31
660.226	-0.69
660.259	13.31
660.291	-4.69
660.323	1.31
660.356	12.31
660.388	3.31
660.42	-0.69
660.453	-0.69
660.485	10.31
660.517	31.31
660.55	20.31
660.582	12.31
660.614	16.31
660.647	-6.69
660.679	-19.69
660.711	2.31
660.743	-0.69
660.776	-13.69
660.808	5.31
660.84	17.31
660.873	-0.69
660.905	-4.69
660.937	1.31
660.969	7.31
661.002	-2.69
661.034	17.31
661.066	7.31
661.099	19.31
661.131	21.31
661.163	-6.69
661.195	-9.69
661.228	12.31
661.26	4.31
661.292	-3.69
661.324	12.31
661.357	-4.69
661.389	13.31
661.421	19.31
661.453	10.31
661.485	3.31
661.518	20.31
661.55	0.31
661.582	-9.69
661.614	8.31
661.647	15.31
661.679	0.31
661.711	9.31
661.743	0.31
661.775	9.31
661.808	26.31
661.84	1.31
661.872	11.31
661.904	1.31
661.936	7.31
661.969	-4.69
662.001	4.31
662.033	5.31
662.065	11.31
662.097	5.31
662.129	12.31
662.162	-4.69
662.194	8.31
662.226	16.31
662.258	14.31
662.29	11.31
662.322	-9.69
662.355	2.31
662.387	13.31
662.419	20.31
662.451	9.31
662.483	18.31
662.515	-9.69
662.547	-0.69
662.58	-2.69
662.612	-9.69
662.644	-13.69
662.676	-7.69
662.708	17.31
662.74	4.31
662.772	17.31
662.804	9.31
662.836	5.31
662.869	0.31
662.901	11.31
662.933	8.31
662.965	8.31
662.997	10.31
663.029	-12.69
663.061	13.31
663.093	-0.69
663.125	13.31
663.157	12.31
663.189	14.31
663.221	22.31
663.254	-12.69
663.286	-6.69
663.318	-1.69
663.35	4.31
663.382	7.31
663.414	16.31
663.446	5.31
663.478	1.31
663.51	18.31
663.542	10.31
663.574	10.31
663.606	12.31
663.638	5.31
663.67	-5.69
663.702	-10.69
663.734	-0.69
663.766	12.31
663.798	-12.69
663.83	3.31
663.862	5.31
663.894	0.31
663.926	-3.69
663.958	-5.69
663.99	1.31
664.022	-6.69
664.054	21.31
664.086	2.31
664.118	-6.69
664.15	-9.69
664.182	1.31
664.214	-0.69
664.246	19.31
664.278	12.31
664.31	27.31
664.342	9.31
664.374	2.31
664.406	2.31
664.438	2.31
664.47	17.31
664.502	8.31
664.534	16.31
664.566	10.31
664.598	13.31
664.63	-2.69
664.662	7.31
664.693	7.31
664.725	-6.69
664.757	-2.69
664.789	-12.69
664.821	-3.69
664.853	1.31
664.885	13.31
664.917	11.31
664.949	16.31
664.981	15.31
665.013	3.31
665.045	-11.69
665.076	-1.69
665.108	3.31
665.14	2.31
665.172	10.31
665.204	5.31
665.236	1.31
665.268	11.31
665.3	7.31
665.331	-9.69
665.363	12.31
665.395	-5.69
665.427	5.31
665.459	0.31
665.491	5.31
665.523	8.31
665.555	1.31
665.586	8.31
665.618	7.31
665.65	-13.69
665.682	9.31
665.714	10.31
665.746	-4.69
665.777	11.31
665.809	-2.69
665.841	1.31
665.873	5.31
665.905	2.31
665.937	11.31
665.968	-5.69
666	4.31
666.032	10.31
666.064	9.31
666.096	20.31
666.127	23.31
666.159	17.31
666.191	17.31
666.223	5.31
666.255	-0.69
666.286	7.31
666.318	-1.69
666.35	7.31
666.382	11.31
666.413	-2.69
666.445	9.31
666.477	-11.69
666.509	3.31
666.54	6.31
666.572	-20.69
666.604	-3.69
666.636	10.31
666.667	20.31
666.699	1.31
666.731	9.31
666.763	-15.69
666.794	23.31
666.826	11.31
666.858	-18.69
666.89	21.31
666.921	6.31
666.953	-1.69
666.985	21.31
667.017	20.31
667.048	5.31
667.08	7.31
667.112	-6.69
667.143	14.31
667.175	24.31
667.207	22.31
667.238	19.31
667.27	-3.69
667.302	8.31
667.334	5.31
667.365	20.31
667.397	4.31
667.429	0.31
667.46	16.31
667.492	10.31
667.524	13.31
667.555	3.31
667.587	10.31
667.619	2.31
667.65	-13.69
667.682	6.31
667.714	9.31
667.745	15.31
667.777	13.31
667.808	-1.69
667.84	0.31
667.872	-6.69
667.903	19.31
667.935	1.31
667.967	13.31
667.998	3.31
668.03	0.31
668.061	13.31
668.093	-3.69
668.125	15.31
668.156	1.31
668.188	3.31
668.22	-3.69
668.251	2.31
668.283	6.31
668.314	8.31
668.346	-6.69
668.377	12.31
668.409	6.31
668.441	4.31
668.472	10.31
668.504	15.31
668.535	11.31
668.567	11.31
668.599	16.31
668.63	3.31
668.662	0.31
668.693	11.31
668.725	8.31
668.756	11.31
668.788	1.31
668.819	8.31
668.851	5.31
668.882	14.31
668.914	9.31
668.946	6.31
668.977	0.31
669.009	10.31
669.04	-12.69
669.072	14.31
669.103	1.31
669.135	-9.69
669.166	0.31
669.198	10.31
669.229	9.31
669.261	4.31
669.292	-9.69
669.324	13.31
669.355	15.31
669.387	-2.69
669.418	2.31
669.45	6.31
669.481	18.31
669.513	10.31
669.544	-2.69
669.576	-4.69
669.607	21.31
669.639	17.31
669.67	-21.69
669.701	4.31
669.733	7.31
669.764	14.31
669.796	2.31
669.827	-8.69
669.859	-6.69
669.89	6.31
669.922	12.31
669.953	33.31
669.985	14.31
670.016	9.31
670.047	12.31
670.079	4.31
670.11	18.31
670.142	8.31
670.173	-10.69
670.204	-16.69
670.236	1.31
670.267	11.31
670.299	7.31
670.33	2.31
670.362	16.31
670.393	-7.69
670.424	11.31
670.456	12.31
670.487	4.31
670.518	5.31
670.55	5.31
670.581	7.31
670.613	8.31
670.644	14.31
670.675	5.31
670.707	0.31
670.738	-4.69
670.769	1.31
670.801	-2.69
670.832	16.31
670.864	-5.69
670.895	1.31
670.926	8.31
670.958	8.31
670.989	9.31
671.02	-4.69
671.052	10.31
671.083	20.31
671.114	3.31
671.146	18.31
671.177	10.31
671.208	-11.69
671.24	-7.69
671.271	9.31
671.302	13.31
671.333	-1.69
671.365	5.31
671.396	-4.69
671.427	1.31
671.459	23.31
671.49	-1.69
671.521	-3.69
671.553	18.31
671.584	17.31
671.615	-6.69
671.646	1.31
671.678	-2.69
671.709	-5.69
671.74	-5.69
671.771	-1.69
671.803	-17.69
671.834	6.31
671.865	7.31
671.896	4.31
671.928	8.31
671.959	1.31
671.99	-2.69
672.021	-3.69
672.053	-1.69
672.084	5.31
672.115	6.31
672.146	3.31
672.178	-3.69
672.209	3.31
672.24	7.31
672.271	30.31
672.303	13.31
672.334	-13.69
672.365	0.31
672.396	7.31
672.427	9.31
672.459	8.31
672.49	21.31
672.521	4.31
672.552	20.31
672.583	15.31
672.615	10.31
672.646	13.31
672.677	13.31
672.708	14.31
672.739	-2.69
672.77	12.31
672.802	13.31
672.833	1.31
672.864	1.31
672.895	-2.69
672.926	13.31
672.957	0.31
672.989	3.31
673.02	13.31
673.051	-14.69
673.082	14.31
673.113	-2.69
673.144	1.31
673.175	3.31
673.206	-7.69
673.238	-16.69
673.269	12.31
673.3	8.31
673.331	15.31
673.362	5.31
673.393	12.31
673.424	15.31
673.455	26.31
673.487	13.31
673.518	14.31
673.549	7.31
673.58	-4.69
673.611	20.31
673.642	4.31
673.673	1.31
673.704	-2.69
673.735	-1.69
673.766	5.31
673.797	9.31
673.828	7.31
673.86	10.31
673.891	9.31
673.922	-3.69
673.953	10.31
673.984	15.31
674.015	14.31
674.046	1.31
674.077	5.31
674.108	-15.69
674.139	-7.69
674.17	5.31
674.201	-2.69
674.232	-15.69
674.263	-4.69
674.294	2.31
674.325	-13.69
674.356	12.31
674.387	10.31
674.418	3.31
674.449	6.31
674.48	-8.69
674.511	1.31
674.542	10.31
674.573	-3.69
674.604	23.31
674.635	12.31
674.666	22.31
674.697	8.31
674.728	20.31
674.759	12.31
674.79	2.31
674.821	-6.69
674.852	7.31
674.883	-6.69
674.914	-4.69
674.945	11.31
674.976	17.31
675.007	-11.69
675.038	-14.69
675.069	-6.69
675.1	2.31
675.131	10.31
675.162	0.31
675.193	-8.69
675.224	12.31
675.254	8.31
675.285	13.31
675.316	12.31
675.347	-11.69
675.378	5.31
675.409	5.31
675.44	6.31
675.471	11.31
675.502	-3.69
675.533	-2.69
675.564	16.31
675.595	10.31
675.625	21.31
675.656	17.31
675.687	12.31
675.718	-11.69
675.749	8.31
675.78	4.31
675.811	4.31
675.842	25.31
675.873	1.31
675.903	-2.69
675.934	1.31
675.965	1.31
675.996	0.31
676.027	-5.69
676.058	-7.69
676.089	-0.69
676.119	-2.69
676.15	1.31
676.181	-21.69
676.212	-9.69
676.243	9.31
676.274	0.31
676.304	9.31
676.335	-11.69
676.366	-5.69
676.397	13.31
676.428	6.31
676.459	5.31
676.489	3.31
676.52	14.31
676.551	-2.69
676.582	-4.69
676.613	14.31
676.643	-2.69
676.674	14.31
676.705	16.31
676.736	-4.69
676.767	24.31
676.797	8.31
676.828	21.31
676.859	-0.69
676.89	13.31
676.92	17.31
676.951	4.31
676.982	13.31
677.013	7.31
677.044	26.31
677.074	13.31
677.105	-0.69
677.136	10.31
677.167	15.31
677.197	12.31
677.228	-1.69
677.259	-12.69
677.289	10.31
677.32	12.31
677.351	6.31
677.382	-0.69
677.412	-6.69
677.443	16.31
677.474	0.31
677.505	-2.69
677.535	3.31
677.566	5.31
677.597	-18.69
677.627	-4.69
677.658	0.31
677.689	12.31
677.72	13.31
677.75	7.31
677.781	18.31
677.812	10.31
677.842	5.31
677.873	11.31
677.904	-15.69
677.934	-16.69
677.965	-5.69
677.996	-16.69
678.026	9.31
678.057	16.31
678.088	-5.69
678.118	-3.69
678.149	-12.69
678.18	1.31
678.21	11.31
678.241	4.31
678.272	-1.69
678.302	19.31
678.333	12.31
678.363	8.31
678.394	9.31
678.425	3.31
678.455	4.31
678.486	-9.69
678.517	3.31
678.547	11.31
678.578	6.31
678.608	-16.69
678.639	13.31
678.67	18.31
678.7	-11.69
678.731	6.31
678.761	4.31
678.792	7.31
678.823	20.31
678.853	-2.69
678.884	-2.69
678.914	17.31
678.945	3.31
678.975	-8.69
679.006	12.31
679.037	-2.69
679.067	14.31
679.098	-1.69
679.128	-12.69
679.159	-5.69
679.189	14.31
679.22	-4.69
679.25	6.31
679.281	9.31
679.312	-5.69
679.342	15.31
679.373	23.31
679.403	4.31
679.434	11.31
679.464	0.31
679.495	-8.69
679.525	5.31
679.556	-5.69
679.586	7.31
679.617	7.31
679.647	2.31
679.678	1.31
679.708	-14.69
679.739	0.31
679.769	6.31
679.8	12.31
679.83	10.31
679.861	23.31
679.891	0.31
679.922	-9.69
679.952	3.31
679.983	6.31
680.013	10.31
680.044	2.31
680.074	19.31
680.105	17.31
680.135	3.31
680.165	12.31
680.196	2.31
680.226	-0.69
680.257	14.31
680.287	6.31
680.318	12.31
680.348	-3.69
680.379	20.31
680.409	12.31
680.439	-10.69
680.47	-9.69
680.5	2.31
680.531	-3.69
680.561	20.31
680.592	9.31
680.622	26.31
680.652	16.31
680.683	8.31
680.713	0.31
680.744	18.31
680.774	-1.69
680.804	17.31
680.835	12.31
680.865	11.31
680.896	19.31
680.926	14.31
680.956	-0.69
680.987	9.31
681.017	-11.69
681.047	-4.69
681.078	5.31
681.108	4.31
681.139	6.31
681.169	10.31
681.199	-0.69
681.23	8.31
681.26	2.31
681.29	15.31
681.321	-0.69
681.351	12.31
681.381	-1.69
681.412	1.31
681.442	4.31
681.472	22.31
681.503	27.31
681.533	17.31
681.563	7.31
681.594	0.31
681.624	11.31
681.654	5.31
681.685	1.31
681.715	3.31
681.745	-7.69
681.775	-2.69
681.806	8.31
681.836	-4.69
681.866	5.31
681.897	11.31
681.927	-0.69
681.957	-9.69
681.987	11.31
682.018	12.31
682.048	21.31
682.078	12.31
682.109	15.31
682.139	23.31
682.169	-3.69
682.199	-11.69
682.23	5.31
682.26	16.31
682.29	-8.69
682.32	1.31
682.351	-5.69
682.381	9.31
682.411	-3.69
682.441	-13.69
682.472	5.31
682.502	2.31
682.532	-3.69
682.562	4.31
682.592	6.31
682.623	15.31
682.653	22.31
682.683	-0.69
682.713	29.31
682.743	-8.69
