Data from HighRes_H2D2_15_04_11_07_2024_HR4C61891__42__15-05-38-643.txt Node

Date: Thu Nov 07 15:05:38 EST 2024
User: crc00042
Spectrometer: HR4C6189
Trigger mode: 4
Integration Time (sec): 1.000000E-1
Scans to average: 1
Electric dark correction enabled: true
Nonlinearity correction enabled: false
Boxcar width: 0
XAxis mode: Wavelengths
Number of Pixels in Spectrum: 3648
>>>>>Begin Spectral Data<<<<<
639.567	-22.46
639.602	-22.46
639.636	-22.46
639.67	-43.46
639.704	-10.46
639.738	-4.46
639.773	2.54
639.807	-3.46
639.841	-5.46
639.875	17.54
639.909	11.54
639.943	-0.46
639.978	-14.46
640.012	-1.46
640.046	15.54
640.08	6.54
640.114	-8.46
640.148	-15.46
640.182	-14.46
640.217	13.54
640.251	16.54
640.285	1.54
640.319	-6.46
640.353	13.54
640.387	9.54
640.421	-8.46
640.455	-9.46
640.49	-10.46
640.524	4.54
640.558	-8.46
640.592	-0.46
640.626	10.54
640.66	6.54
640.694	6.54
640.728	7.54
640.762	12.54
640.796	19.54
640.83	18.54
640.865	-3.46
640.899	6.54
640.933	-1.46
640.967	-17.46
641.001	0.54
641.035	-1.46
641.069	5.54
641.103	9.54
641.137	-2.46
641.171	-5.46
641.205	20.54
641.239	12.54
641.273	12.54
641.307	11.54
641.341	1.54
641.375	-5.46
641.409	-4.46
641.443	-0.46
641.477	7.54
641.511	15.54
641.545	-0.46
641.579	-8.46
641.614	9.54
641.648	14.54
641.682	-9.46
641.716	0.54
641.75	22.54
641.784	-2.46
641.818	-6.46
641.852	9.54
641.886	-9.46
641.919	23.54
641.953	15.54
641.987	-16.46
642.021	-16.46
642.055	3.54
642.089	14.54
642.123	10.54
642.157	-19.46
642.191	2.54
642.225	8.54
642.259	-12.46
642.293	4.54
642.327	10.54
642.361	7.54
642.395	14.54
642.429	13.54
642.463	0.54
642.497	12.54
642.531	5.54
642.565	-7.46
642.599	17.54
642.633	-6.46
642.666	12.54
642.7	22.54
642.734	9.54
642.768	-15.46
642.802	6.54
642.836	6.54
642.87	8.54
642.904	18.54
642.938	9.54
642.972	9.54
643.005	-5.46
643.039	5.54
643.073	-1.46
643.107	8.54
643.141	2.54
643.175	6.54
643.209	9.54
643.243	16.54
643.276	11.54
643.31	8.54
643.344	-9.46
643.378	3.54
643.412	16.54
643.446	9.54
643.48	-2.46
643.513	12.54
643.547	1.54
643.581	5.54
643.615	-0.46
643.649	-7.46
643.683	3.54
643.716	-4.46
643.75	8.54
643.784	2.54
643.818	4.54
643.852	-8.46
643.886	3.54
643.919	15.54
643.953	12.54
643.987	-2.46
644.021	6.54
644.055	-1.46
644.088	-6.46
644.122	-20.46
644.156	-9.46
644.19	1.54
644.224	-4.46
644.257	8.54
644.291	20.54
644.325	12.54
644.359	-4.46
644.392	1.54
644.426	2.54
644.46	-0.46
644.494	7.54
644.527	-8.46
644.561	10.54
644.595	-5.46
644.629	2.54
644.662	-11.46
644.696	20.54
644.73	7.54
644.764	1.54
644.797	-7.46
644.831	27.54
644.865	8.54
644.899	-1.46
644.932	9.54
644.966	5.54
645	1.54
645.033	16.54
645.067	1.54
645.101	-1.46
645.135	-14.46
645.168	-0.46
645.202	-1.46
645.236	10.54
645.269	13.54
645.303	-3.46
645.337	-19.46
645.37	-7.46
645.404	6.54
645.438	7.54
645.471	-18.46
645.505	4.54
645.539	-0.46
645.572	-11.46
645.606	10.54
645.64	4.54
645.673	1.54
645.707	21.54
645.741	0.54
645.774	1.54
645.808	15.54
645.842	-4.46
645.875	15.54
645.909	-6.46
645.943	-1.46
645.976	0.54
646.01	15.54
646.043	-3.46
646.077	10.54
646.111	-7.46
646.144	-4.46
646.178	5.54
646.212	-10.46
646.245	-1.46
646.279	15.54
646.312	12.54
646.346	16.54
646.38	6.54
646.413	-2.46
646.447	1.54
646.48	-3.46
646.514	5.54
646.547	-4.46
646.581	1.54
646.615	4.54
646.648	-2.46
646.682	-2.46
646.715	-2.46
646.749	3.54
646.782	1.54
646.816	-4.46
646.85	9.54
646.883	-12.46
646.917	12.54
646.95	14.54
646.984	-4.46
647.017	-5.46
647.051	12.54
647.084	9.54
647.118	-7.46
647.151	11.54
647.185	1.54
647.218	-9.46
647.252	10.54
647.285	-1.46
647.319	-6.46
647.353	6.54
647.386	2.54
647.42	-7.46
647.453	6.54
647.487	-2.46
647.52	-4.46
647.553	2.54
647.587	4.54
647.62	-7.46
647.654	-2.46
647.687	7.54
647.721	3.54
647.754	6.54
647.788	1.54
647.821	1.54
647.855	3.54
647.888	16.54
647.922	28.54
647.955	11.54
647.989	8.54
648.022	-5.46
648.055	3.54
648.089	-6.46
648.122	27.54
648.156	3.54
648.189	0.54
648.223	12.54
648.256	12.54
648.29	-3.46
648.323	-1.46
648.356	-6.46
648.39	-0.46
648.423	0.54
648.457	6.54
648.49	-3.46
648.523	-7.46
648.557	-3.46
648.59	11.54
648.624	19.54
648.657	7.54
648.69	17.54
648.724	26.54
648.757	12.54
648.791	1.54
648.824	8.54
648.857	16.54
648.891	-10.46
648.924	13.54
648.957	25.54
648.991	-12.46
649.024	14.54
649.057	-6.46
649.091	-8.46
649.124	12.54
649.158	20.54
649.191	33.54
649.224	6.54
649.258	9.54
649.291	4.54
649.324	6.54
649.358	3.54
649.391	0.54
649.424	5.54
649.458	-5.46
649.491	8.54
649.524	3.54
649.557	1.54
649.591	-3.46
649.624	7.54
649.657	8.54
649.691	5.54
649.724	5.54
649.757	10.54
649.791	7.54
649.824	9.54
649.857	22.54
649.89	11.54
649.924	-7.46
649.957	1.54
649.99	-4.46
650.023	-6.46
650.057	-6.46
650.09	3.54
650.123	12.54
650.157	16.54
650.19	18.54
650.223	2.54
650.256	-14.46
650.29	-8.46
650.323	-0.46
650.356	9.54
650.389	9.54
650.423	-2.46
650.456	7.54
650.489	1.54
650.522	15.54
650.555	16.54
650.589	10.54
650.622	0.54
650.655	-1.46
650.688	13.54
650.721	0.54
650.755	-1.46
650.788	13.54
650.821	9.54
650.854	12.54
650.887	17.54
650.921	-9.46
650.954	-3.46
650.987	3.54
651.02	7.54
651.053	-17.46
651.087	2.54
651.12	25.54
651.153	9.54
651.186	15.54
651.219	5.54
651.252	10.54
651.286	10.54
651.319	12.54
651.352	7.54
651.385	-1.46
651.418	0.54
651.451	12.54
651.484	4.54
651.518	-6.46
651.551	12.54
651.584	-4.46
651.617	6.54
651.65	6.54
651.683	15.54
651.716	4.54
651.749	-8.46
651.783	8.54
651.816	-1.46
651.849	-1.46
651.882	7.54
651.915	4.54
651.948	4.54
651.981	2.54
652.014	-15.46
652.047	2.54
652.08	-1.46
652.114	6.54
652.147	5.54
652.18	4.54
652.213	19.54
652.246	8.54
652.279	6.54
652.312	15.54
652.345	0.54
652.378	1.54
652.411	25.54
652.444	23.54
652.477	8.54
652.51	-3.46
652.543	-4.46
652.576	14.54
652.609	0.54
652.642	7.54
652.675	18.54
652.709	18.54
652.742	6.54
652.775	19.54
652.808	10.54
652.841	2.54
652.874	15.54
652.907	13.54
652.94	-6.46
652.973	3.54
653.006	12.54
653.039	4.54
653.072	-1.46
653.105	-4.46
653.138	2.54
653.171	6.54
653.204	8.54
653.237	14.54
653.27	16.54
653.303	14.54
653.336	6.54
653.368	-1.46
653.401	3.54
653.434	-6.46
653.467	13.54
653.5	-8.46
653.533	-1.46
653.566	14.54
653.599	8.54
653.632	3.54
653.665	0.54
653.698	-4.46
653.731	-11.46
653.764	0.54
653.797	12.54
653.83	29.54
653.863	15.54
653.896	20.54
653.929	-0.46
653.961	1.54
653.994	9.54
654.027	-13.46
654.06	-4.46
654.093	2.54
654.126	-3.46
654.159	4.54
654.192	18.54
654.225	13.54
654.258	-0.46
654.29	3.54
654.323	-0.46
654.356	11.54
654.389	-5.46
654.422	14.54
654.455	-4.46
654.488	13.54
654.521	14.54
654.553	-8.46
654.586	15.54
654.619	5.54
654.652	-3.46
654.685	15.54
654.718	-1.46
654.751	9.54
654.783	1.54
654.816	26.54
654.849	17.54
654.882	-0.46
654.915	-5.46
654.948	-0.46
654.98	-3.46
655.013	-1.46
655.046	5.54
655.079	-23.46
655.112	3.54
655.144	-17.46
655.177	7.54
655.21	26.54
655.243	16.54
655.276	3.54
655.308	2.54
655.341	-5.46
655.374	13.54
655.407	0.54
655.44	2.54
655.472	16.54
655.505	3.54
655.538	18.54
655.571	10.54
655.603	4.54
655.636	-0.46
655.669	5.54
655.702	14.54
655.734	-2.46
655.767	-1.46
655.8	14.54
655.833	13.54
655.865	23.54
655.898	12.54
655.931	12.54
655.964	26.54
655.996	35.54
656.029	32.54
656.062	39.54
656.095	35.54
656.127	84.54
656.16	222.54
656.193	634.54
656.225	984.54
656.258	561.54
656.291	215.54
656.324	177.54
656.356	364.54
656.389	763.54
656.422	674.54
656.454	238.54
656.487	67.54
656.52	26.54
656.552	21.54
656.585	22.54
656.618	18.54
656.65	4.54
656.683	-9.46
656.716	-5.46
656.748	13.54
656.781	2.54
656.814	-6.46
656.846	3.54
656.879	2.54
656.912	18.54
656.944	-4.46
656.977	-17.46
657.01	-5.46
657.042	13.54
657.075	26.54
657.108	10.54
657.14	20.54
657.173	1.54
657.205	20.54
657.238	22.54
657.271	2.54
657.303	-26.46
657.336	1.54
657.369	11.54
657.401	4.54
657.434	26.54
657.466	21.54
657.499	-2.46
657.532	9.54
657.564	17.54
657.597	6.54
657.629	11.54
657.662	-13.46
657.694	10.54
657.727	-4.46
657.76	11.54
657.792	-7.46
657.825	-14.46
657.857	-5.46
657.89	-1.46
657.922	10.54
657.955	-8.46
657.987	-2.46
658.02	28.54
658.053	3.54
658.085	4.54
658.118	4.54
658.15	17.54
658.183	18.54
658.215	4.54
658.248	-9.46
658.28	-8.46
658.313	17.54
658.345	7.54
658.378	1.54
658.41	8.54
658.443	8.54
658.475	-16.46
658.508	-12.46
658.54	-6.46
658.573	7.54
658.605	6.54
658.638	-9.46
658.67	-0.46
658.703	5.54
658.735	-6.46
658.768	-6.46
658.8	-28.46
658.833	20.54
658.865	7.54
658.898	18.54
658.93	-2.46
658.963	-2.46
658.995	-12.46
659.028	16.54
659.06	11.54
659.092	1.54
659.125	-12.46
659.157	8.54
659.19	-14.46
659.222	3.54
659.255	5.54
659.287	0.54
659.32	1.54
659.352	6.54
659.384	4.54
659.417	-1.46
659.449	9.54
659.482	2.54
659.514	-14.46
659.546	-0.46
659.579	-11.46
659.611	15.54
659.644	-13.46
659.676	7.54
659.708	-7.46
659.741	-8.46
659.773	26.54
659.806	9.54
659.838	0.54
659.87	7.54
659.903	7.54
659.935	9.54
659.967	24.54
660	8.54
660.032	-8.46
660.065	-0.46
660.097	8.54
660.129	10.54
660.162	7.54
660.194	21.54
660.226	6.54
660.259	13.54
660.291	7.54
660.323	-7.46
660.356	1.54
660.388	10.54
660.42	-3.46
660.453	8.54
660.485	11.54
660.517	9.54
660.55	18.54
660.582	1.54
660.614	-2.46
660.647	-0.46
660.679	-14.46
660.711	12.54
660.743	2.54
660.776	1.54
660.808	-7.46
660.84	-8.46
660.873	-0.46
660.905	-5.46
660.937	2.54
660.969	3.54
661.002	7.54
661.034	14.54
661.066	9.54
661.099	16.54
661.131	17.54
661.163	10.54
661.195	17.54
661.228	18.54
661.26	6.54
661.292	1.54
661.324	12.54
661.357	0.54
661.389	5.54
661.421	-13.46
661.453	-16.46
661.485	3.54
661.518	-3.46
661.55	-25.46
661.582	4.54
661.614	5.54
661.647	15.54
661.679	-5.46
661.711	1.54
661.743	-23.46
661.775	-16.46
661.808	13.54
661.84	-6.46
661.872	11.54
661.904	9.54
661.936	-2.46
661.969	-31.46
662.001	-11.46
662.033	2.54
662.065	-5.46
662.097	10.54
662.129	10.54
662.162	-8.46
662.194	10.54
662.226	15.54
662.258	16.54
662.29	6.54
662.322	-18.46
662.355	5.54
662.387	34.54
662.419	13.54
662.451	13.54
662.483	16.54
662.515	5.54
662.547	4.54
662.58	-19.46
662.612	-3.46
662.644	-13.46
662.676	5.54
662.708	27.54
662.74	3.54
662.772	-4.46
662.804	4.54
662.836	27.54
662.869	21.54
662.901	5.54
662.933	10.54
662.965	21.54
662.997	14.54
663.029	-8.46
663.061	-0.46
663.093	-6.46
663.125	15.54
663.157	7.54
663.189	14.54
663.221	8.54
663.254	2.54
663.286	9.54
663.318	-15.46
663.35	-2.46
663.382	-0.46
663.414	-4.46
663.446	-1.46
663.478	-12.46
663.51	18.54
663.542	2.54
663.574	6.54
663.606	5.54
663.638	-19.46
663.67	-9.46
663.702	2.54
663.734	-1.46
663.766	2.54
663.798	-1.46
663.83	17.54
663.862	-2.46
663.894	10.54
663.926	7.54
663.958	23.54
663.99	12.54
664.022	3.54
664.054	1.54
664.086	-21.46
664.118	-19.46
664.15	-8.46
664.182	-5.46
664.214	-12.46
664.246	14.54
664.278	-12.46
664.31	16.54
664.342	3.54
664.374	-1.46
664.406	-10.46
664.438	-3.46
664.47	22.54
664.502	-10.46
664.534	-11.46
664.566	-10.46
664.598	-2.46
664.63	1.54
664.662	0.54
664.693	-8.46
664.725	-21.46
664.757	2.54
664.789	-14.46
664.821	15.54
664.853	18.54
664.885	-5.46
664.917	-3.46
664.949	10.54
664.981	10.54
665.013	-6.46
665.045	1.54
665.076	1.54
665.108	-8.46
665.14	7.54
665.172	23.54
665.204	-8.46
665.236	2.54
665.268	27.54
665.3	2.54
665.331	-1.46
665.363	9.54
665.395	2.54
665.427	-4.46
665.459	-0.46
665.491	-1.46
665.523	1.54
665.555	-2.46
665.586	-0.46
665.618	-10.46
665.65	-13.46
665.682	4.54
665.714	10.54
665.746	2.54
665.777	-0.46
665.809	5.54
665.841	2.54
665.873	7.54
665.905	-9.46
665.937	12.54
665.968	8.54
666	1.54
666.032	-5.46
666.064	-8.46
666.096	-6.46
666.127	13.54
666.159	12.54
666.191	-0.46
666.223	12.54
666.255	-6.46
666.286	-10.46
666.318	-5.46
666.35	19.54
666.382	8.54
666.413	1.54
666.445	-5.46
666.477	-25.46
666.509	-1.46
666.54	11.54
666.572	0.54
666.604	-7.46
666.636	14.54
666.667	13.54
666.699	8.54
666.731	1.54
666.763	-9.46
666.794	7.54
666.826	9.54
666.858	-2.46
666.89	13.54
666.921	6.54
666.953	2.54
666.985	1.54
667.017	20.54
667.048	5.54
667.08	5.54
667.112	2.54
667.143	-19.46
667.175	3.54
667.207	1.54
667.238	6.54
667.27	-2.46
667.302	-2.46
667.334	1.54
667.365	13.54
667.397	-1.46
667.429	-2.46
667.46	10.54
667.492	-3.46
667.524	-15.46
667.555	-5.46
667.587	0.54
667.619	-2.46
667.65	-4.46
667.682	3.54
667.714	10.54
667.745	6.54
667.777	2.54
667.808	-4.46
667.84	-2.46
667.872	9.54
667.903	26.54
667.935	-3.46
667.967	12.54
667.998	2.54
668.03	-8.46
668.061	14.54
668.093	-2.46
668.125	1.54
668.156	7.54
668.188	-9.46
668.22	-7.46
668.251	2.54
668.283	3.54
668.314	0.54
668.346	-2.46
668.377	-0.46
668.409	-6.46
668.441	0.54
668.472	3.54
668.504	9.54
668.535	17.54
668.567	19.54
668.599	-2.46
668.63	-10.46
668.662	-10.46
668.693	11.54
668.725	6.54
668.756	11.54
668.788	-8.46
668.819	12.54
668.851	3.54
668.882	-1.46
668.914	5.54
668.946	-9.46
668.977	-6.46
669.009	-13.46
669.04	2.54
669.072	12.54
669.103	7.54
669.135	7.54
669.166	1.54
669.198	1.54
669.229	2.54
669.261	10.54
669.292	13.54
669.324	4.54
669.355	9.54
669.387	-6.46
669.418	14.54
669.45	6.54
669.481	-0.46
669.513	11.54
669.544	-6.46
669.576	4.54
669.607	17.54
669.639	18.54
669.67	-12.46
669.701	18.54
669.733	6.54
669.764	1.54
669.796	-5.46
669.827	-17.46
669.859	-1.46
669.89	13.54
669.922	9.54
669.953	9.54
669.985	-4.46
670.016	2.54
670.047	4.54
670.079	4.54
670.11	24.54
670.142	14.54
670.173	0.54
670.204	2.54
670.236	7.54
670.267	-5.46
670.299	1.54
670.33	-0.46
670.362	12.54
670.393	-10.46
670.424	-1.46
670.456	-13.46
670.487	1.54
670.518	-5.46
670.55	19.54
670.581	-2.46
670.613	17.54
670.644	-17.46
670.675	-4.46
670.707	1.54
670.738	-0.46
670.769	-3.46
670.801	3.54
670.832	3.54
670.864	-2.46
670.895	-6.46
670.926	7.54
670.958	5.54
670.989	10.54
671.02	-4.46
671.052	-11.46
671.083	-0.46
671.114	-11.46
671.146	6.54
671.177	1.54
671.208	-3.46
671.24	-9.46
671.271	-1.46
671.302	10.54
671.333	1.54
671.365	-14.46
671.396	-14.46
671.427	-5.46
671.459	-1.46
671.49	-2.46
671.521	-4.46
671.553	8.54
671.584	21.54
671.615	-7.46
671.646	26.54
671.678	5.54
671.709	-10.46
671.74	-27.46
671.771	0.54
671.803	-4.46
671.834	0.54
671.865	-1.46
671.896	10.54
671.928	-5.46
671.959	-8.46
671.99	-7.46
672.021	-1.46
672.053	-15.46
672.084	15.54
672.115	8.54
672.146	-6.46
672.178	-8.46
672.209	-9.46
672.24	3.54
672.271	11.54
672.303	12.54
672.334	1.54
672.365	6.54
672.396	19.54
672.427	17.54
672.459	8.54
672.49	13.54
672.521	-3.46
672.552	19.54
672.583	11.54
672.615	10.54
672.646	19.54
672.677	-16.46
672.708	3.54
672.739	-0.46
672.77	17.54
672.802	13.54
672.833	-2.46
672.864	9.54
672.895	-1.46
672.926	-11.46
672.957	-2.46
672.989	-13.46
673.02	13.54
673.051	4.54
673.082	14.54
673.113	-3.46
673.144	-2.46
673.175	6.54
673.206	-8.46
673.238	-1.46
673.269	-8.46
673.3	1.54
673.331	19.54
673.362	1.54
673.393	-4.46
673.424	15.54
673.455	9.54
673.487	-5.46
673.518	25.54
673.549	10.54
673.58	-1.46
673.611	3.54
673.642	0.54
673.673	-24.46
673.704	-2.46
673.735	-1.46
673.766	-1.46
673.797	-9.46
673.828	1.54
673.86	-9.46
673.891	-12.46
673.922	14.54
673.953	7.54
673.984	8.54
674.015	19.54
674.046	12.54
674.077	4.54
674.108	-8.46
674.139	-3.46
674.17	3.54
674.201	5.54
674.232	-14.46
674.263	1.54
674.294	1.54
674.325	-14.46
674.356	0.54
674.387	16.54
674.418	13.54
674.449	5.54
674.48	-13.46
674.511	10.54
674.542	6.54
674.573	-7.46
674.604	6.54
674.635	1.54
674.666	22.54
674.697	-4.46
674.728	-2.46
674.759	-6.46
674.79	-3.46
674.821	-9.46
674.852	5.54
674.883	-6.46
674.914	8.54
674.945	-4.46
674.976	10.54
675.007	0.54
675.038	-8.46
675.069	-3.46
675.1	-1.46
675.131	-10.46
675.162	-22.46
675.193	-0.46
675.224	6.54
675.254	-3.46
675.285	9.54
675.316	18.54
675.347	14.54
675.378	-4.46
675.409	-9.46
675.44	5.54
675.471	11.54
675.502	-5.46
675.533	-5.46
675.564	-3.46
675.595	-5.46
675.625	22.54
675.656	12.54
675.687	12.54
675.718	-5.46
675.749	8.54
675.78	19.54
675.811	-2.46
675.842	5.54
675.873	13.54
675.903	1.54
675.934	11.54
675.965	7.54
675.996	2.54
676.027	-4.46
676.058	14.54
676.089	-1.46
676.119	6.54
676.15	-6.46
676.181	2.54
676.212	-3.46
676.243	17.54
676.274	-13.46
676.304	24.54
676.335	-4.46
676.366	-7.46
676.397	5.54
676.428	-7.46
676.459	23.54
676.489	20.54
676.52	11.54
676.551	-17.46
676.582	-9.46
676.613	5.54
676.643	12.54
676.674	4.54
676.705	7.54
676.736	5.54
676.767	8.54
676.797	16.54
676.828	-0.46
676.859	3.54
676.89	-6.46
676.92	-8.46
676.951	-2.46
676.982	17.54
677.013	-1.46
677.044	10.54
677.074	10.54
677.105	-7.46
677.136	7.54
677.167	6.54
677.197	9.54
677.228	16.54
677.259	-5.46
677.289	3.54
677.32	-5.46
677.351	-4.46
677.382	-7.46
677.412	-13.46
677.443	10.54
677.474	-22.46
677.505	-7.46
677.535	10.54
677.566	-4.46
677.597	-15.46
677.627	-10.46
677.658	-5.46
677.689	8.54
677.72	-0.46
677.75	-2.46
677.781	-3.46
677.812	-0.46
677.842	17.54
677.873	2.54
677.904	-12.46
677.934	0.54
677.965	-6.46
677.996	-17.46
678.026	-3.46
678.057	9.54
678.088	-5.46
678.118	6.54
678.149	-5.46
678.18	-1.46
678.21	10.54
678.241	-0.46
678.272	-8.46
678.302	0.54
678.333	11.54
678.363	6.54
678.394	7.54
678.425	1.54
678.455	7.54
678.486	36.54
678.517	-5.46
678.547	3.54
678.578	-1.46
678.608	-7.46
678.639	8.54
678.67	9.54
678.7	-15.46
678.731	1.54
678.761	7.54
678.792	8.54
678.823	10.54
678.853	2.54
678.884	-3.46
678.914	11.54
678.945	4.54
678.975	4.54
679.006	3.54
679.037	6.54
679.067	26.54
679.098	-7.46
679.128	-14.46
679.159	11.54
679.189	24.54
679.22	-21.46
679.25	5.54
679.281	5.54
679.312	4.54
679.342	-9.46
679.373	46.54
679.403	7.54
679.434	15.54
679.464	-1.46
679.495	4.54
679.525	6.54
679.556	-8.46
679.586	15.54
679.617	14.54
679.647	0.54
679.678	-4.46
679.708	7.54
679.739	-8.46
679.769	-2.46
679.8	-14.46
679.83	-2.46
679.861	12.54
679.891	-17.46
679.922	-9.46
679.952	21.54
679.983	16.54
680.013	1.54
680.044	-5.46
680.074	1.54
680.105	10.54
680.135	5.54
680.165	12.54
680.196	-1.46
680.226	6.54
680.257	15.54
680.287	1.54
680.318	18.54
680.348	6.54
680.379	3.54
680.409	1.54
680.439	-6.46
680.47	7.54
680.5	3.54
680.531	-9.46
680.561	11.54
680.592	8.54
680.622	12.54
680.652	-0.46
680.683	10.54
680.713	-0.46
680.744	-8.46
680.774	0.54
680.804	37.54
680.835	-1.46
680.865	-2.46
680.896	22.54
680.926	13.54
680.956	-15.46
680.987	0.54
681.017	7.54
681.047	13.54
681.078	14.54
681.108	-5.46
681.139	3.54
681.169	3.54
681.199	-4.46
681.23	5.54
681.26	-0.46
681.29	6.54
681.321	-12.46
681.351	0.54
681.381	-16.46
681.412	7.54
681.442	10.54
681.472	33.54
681.503	7.54
681.533	9.54
681.563	0.54
681.594	-8.46
681.624	8.54
681.654	13.54
681.685	1.54
681.715	4.54
681.745	1.54
681.775	5.54
681.806	6.54
681.836	10.54
681.866	3.54
681.897	8.54
681.927	-14.46
681.957	-4.46
681.987	12.54
682.018	7.54
682.048	8.54
682.078	-4.46
682.109	16.54
682.139	12.54
682.169	13.54
682.199	3.54
682.23	-4.46
682.26	11.54
682.29	-3.46
682.32	5.54
682.351	6.54
682.381	4.54
682.411	14.54
682.441	-2.46
682.472	0.54
682.502	3.54
682.532	-7.46
682.562	-15.46
682.592	18.54
682.623	20.54
682.653	1.54
