Data from HighRes_H2D2_15_04_11_07_2024_HR4C61891__87__15-05-43-142.txt Node

Date: Thu Nov 07 15:05:43 EST 2024
User: crc00042
Spectrometer: HR4C6189
Trigger mode: 4
Integration Time (sec): 1.000000E-1
Scans to average: 1
Electric dark correction enabled: true
Nonlinearity correction enabled: false
Boxcar width: 0
XAxis mode: Wavelengths
Number of Pixels in Spectrum: 3648
>>>>>Begin Spectral Data<<<<<
639.567	-62.23
639.602	-62.23
639.636	-62.23
639.67	-37.23
639.704	-20.23
639.738	1.77
639.773	3.77
639.807	-17.23
639.841	0.77
639.875	17.77
639.909	1.77
639.943	-13.23
639.978	9.77
640.012	-2.23
640.046	4.77
640.08	5.77
640.114	-7.23
640.148	-6.23
640.182	-0.23
640.217	-8.23
640.251	9.77
640.285	20.77
640.319	1.77
640.353	13.77
640.387	10.77
640.421	-3.23
640.455	-12.23
640.49	1.77
640.524	-13.23
640.558	1.77
640.592	-16.23
640.626	-22.23
640.66	-8.23
640.694	-18.23
640.728	-6.23
640.762	3.77
640.796	12.77
640.83	4.77
640.865	9.77
640.899	11.77
640.933	10.77
640.967	7.77
641.001	11.77
641.035	15.77
641.069	0.77
641.103	-23.23
641.137	-8.23
641.171	-5.23
641.205	9.77
641.239	9.77
641.273	10.77
641.307	15.77
641.341	7.77
641.375	-8.23
641.409	-3.23
641.443	-4.23
641.477	5.77
641.511	10.77
641.545	2.77
641.579	-0.23
641.614	30.77
641.648	7.77
641.682	-2.23
641.716	22.77
641.75	23.77
641.784	-4.23
641.818	-6.23
641.852	0.77
641.886	-17.23
641.919	23.77
641.953	4.77
641.987	-5.23
642.021	0.77
642.055	-0.23
642.089	11.77
642.123	-2.23
642.157	-9.23
642.191	-1.23
642.225	19.77
642.259	10.77
642.293	10.77
642.327	0.77
642.361	0.77
642.395	9.77
642.429	14.77
642.463	17.77
642.497	22.77
642.531	-3.23
642.565	-14.23
642.599	3.77
642.633	-9.23
642.666	6.77
642.7	7.77
642.734	10.77
642.768	3.77
642.802	-19.23
642.836	-21.23
642.87	-0.23
642.904	14.77
642.938	13.77
642.972	-1.23
643.005	2.77
643.039	5.77
643.073	3.77
643.107	11.77
643.141	16.77
643.175	15.77
643.209	-15.23
643.243	-7.23
643.276	-4.23
643.31	1.77
643.344	-11.23
643.378	14.77
643.412	2.77
643.446	-19.23
643.48	-2.23
643.513	13.77
643.547	-1.23
643.581	7.77
643.615	5.77
643.649	6.77
643.683	2.77
643.716	-0.23
643.75	6.77
643.784	-14.23
643.818	2.77
643.852	-5.23
643.886	-3.23
643.919	-1.23
643.953	-1.23
643.987	1.77
644.021	7.77
644.055	-5.23
644.088	-4.23
644.122	-3.23
644.156	-1.23
644.19	-6.23
644.224	4.77
644.257	-4.23
644.291	9.77
644.325	15.77
644.359	-0.23
644.392	17.77
644.426	14.77
644.46	-6.23
644.494	1.77
644.527	-6.23
644.561	1.77
644.595	10.77
644.629	-11.23
644.662	-17.23
644.696	5.77
644.73	10.77
644.764	2.77
644.797	2.77
644.831	-2.23
644.865	7.77
644.899	-3.23
644.932	16.77
644.966	17.77
645	11.77
645.033	19.77
645.067	-8.23
645.101	6.77
645.135	13.77
645.168	10.77
645.202	-2.23
645.236	-13.23
645.269	3.77
645.303	0.77
645.337	-6.23
645.37	-10.23
645.404	0.77
645.438	-6.23
645.471	-7.23
645.505	-3.23
645.539	-1.23
645.572	1.77
645.606	7.77
645.64	-6.23
645.673	9.77
645.707	12.77
645.741	-3.23
645.774	3.77
645.808	12.77
645.842	-10.23
645.875	1.77
645.909	-9.23
645.943	-7.23
645.976	6.77
646.01	-15.23
646.043	17.77
646.077	11.77
646.111	17.77
646.144	-1.23
646.178	5.77
646.212	-8.23
646.245	7.77
646.279	9.77
646.312	2.77
646.346	14.77
646.38	-1.23
646.413	11.77
646.447	11.77
646.48	8.77
646.514	4.77
646.547	-3.23
646.581	10.77
646.615	-4.23
646.648	7.77
646.682	-0.23
646.715	-8.23
646.749	10.77
646.782	4.77
646.816	-4.23
646.85	11.77
646.883	12.77
646.917	7.77
646.95	11.77
646.984	2.77
647.017	0.77
647.051	-3.23
647.084	11.77
647.118	10.77
647.151	8.77
647.185	0.77
647.218	-19.23
647.252	16.77
647.285	0.77
647.319	-11.23
647.353	-4.23
647.386	7.77
647.42	0.77
647.453	12.77
647.487	19.77
647.52	-4.23
647.553	2.77
647.587	-10.23
647.62	-7.23
647.654	14.77
647.687	7.77
647.721	15.77
647.754	11.77
647.788	9.77
647.821	-16.23
647.855	-3.23
647.888	23.77
647.922	23.77
647.955	13.77
647.989	17.77
648.022	5.77
648.055	-1.23
648.089	-7.23
648.122	24.77
648.156	-2.23
648.189	5.77
648.223	11.77
648.256	9.77
648.29	14.77
648.323	0.77
648.356	-1.23
648.39	12.77
648.423	4.77
648.457	9.77
648.49	10.77
648.523	-0.23
648.557	0.77
648.59	0.77
648.624	2.77
648.657	5.77
648.69	23.77
648.724	12.77
648.757	24.77
648.791	5.77
648.824	8.77
648.857	9.77
648.891	10.77
648.924	-0.23
648.957	9.77
648.991	0.77
649.024	24.77
649.057	5.77
649.091	5.77
649.124	-4.23
649.158	-8.23
649.191	9.77
649.224	8.77
649.258	26.77
649.291	6.77
649.324	18.77
649.358	8.77
649.391	20.77
649.424	10.77
649.458	11.77
649.491	12.77
649.524	4.77
649.557	-12.23
649.591	-22.23
649.624	7.77
649.657	-19.23
649.691	-1.23
649.724	17.77
649.757	-0.23
649.791	-2.23
649.824	3.77
649.857	10.77
649.89	8.77
649.924	-6.23
649.957	-18.23
649.99	-5.23
650.023	-4.23
650.057	-10.23
650.09	-0.23
650.123	13.77
650.157	5.77
650.19	12.77
650.223	-8.23
650.256	-6.23
650.29	1.77
650.323	8.77
650.356	3.77
650.389	-9.23
650.423	-14.23
650.456	-0.23
650.489	-10.23
650.522	10.77
650.555	14.77
650.589	4.77
650.622	5.77
650.655	19.77
650.688	-3.23
650.721	-5.23
650.755	-0.23
650.788	13.77
650.821	12.77
650.854	-5.23
650.887	0.77
650.921	-14.23
650.954	-1.23
650.987	13.77
651.02	-5.23
651.053	-19.23
651.087	-15.23
651.12	10.77
651.153	-5.23
651.186	-6.23
651.219	-15.23
651.252	6.77
651.286	-4.23
651.319	-6.23
651.352	1.77
651.385	10.77
651.418	10.77
651.451	3.77
651.484	0.77
651.518	-9.23
651.551	11.77
651.584	2.77
651.617	17.77
651.65	17.77
651.683	20.77
651.716	0.77
651.749	-10.23
651.783	-9.23
651.816	-2.23
651.849	-6.23
651.882	-4.23
651.915	-9.23
651.948	-1.23
651.981	0.77
652.014	-10.23
652.047	-8.23
652.08	-9.23
652.114	4.77
652.147	-11.23
652.18	2.77
652.213	23.77
652.246	5.77
652.279	-2.23
652.312	12.77
652.345	-2.23
652.378	14.77
652.411	28.77
652.444	8.77
652.477	0.77
652.51	-5.23
652.543	4.77
652.576	-0.23
652.609	3.77
652.642	5.77
652.675	9.77
652.709	-2.23
652.742	13.77
652.775	11.77
652.808	11.77
652.841	14.77
652.874	-9.23
652.907	-7.23
652.94	-0.23
652.973	-11.23
653.006	3.77
653.039	-0.23
653.072	14.77
653.105	5.77
653.138	-3.23
653.171	5.77
653.204	-12.23
653.237	-10.23
653.27	-1.23
653.303	11.77
653.336	17.77
653.368	7.77
653.401	5.77
653.434	-2.23
653.467	-5.23
653.5	-12.23
653.533	-1.23
653.566	-17.23
653.599	1.77
653.632	7.77
653.665	3.77
653.698	-5.23
653.731	-8.23
653.764	13.77
653.797	-0.23
653.83	6.77
653.863	-6.23
653.896	-8.23
653.929	-10.23
653.961	0.77
653.994	5.77
654.027	-8.23
654.06	17.77
654.093	11.77
654.126	-9.23
654.159	9.77
654.192	6.77
654.225	1.77
654.258	-0.23
654.29	-4.23
654.323	-4.23
654.356	9.77
654.389	-20.23
654.422	-0.23
654.455	1.77
654.488	-0.23
654.521	-17.23
654.553	-11.23
654.586	14.77
654.619	6.77
654.652	-0.23
654.685	8.77
654.718	15.77
654.751	7.77
654.783	-9.23
654.816	10.77
654.849	7.77
654.882	1.77
654.915	-11.23
654.948	9.77
654.98	0.77
655.013	23.77
655.046	-10.23
655.079	-2.23
655.112	9.77
655.144	-12.23
655.177	3.77
655.21	8.77
655.243	22.77
655.276	25.77
655.308	-4.23
655.341	-14.23
655.374	-3.23
655.407	9.77
655.44	3.77
655.472	10.77
655.505	12.77
655.538	-10.23
655.571	10.77
655.603	3.77
655.636	6.77
655.669	7.77
655.702	16.77
655.734	-3.23
655.767	2.77
655.8	12.77
655.833	14.77
655.865	25.77
655.898	12.77
655.931	6.77
655.964	12.77
655.996	21.77
656.029	21.77
656.062	26.77
656.095	51.77
656.127	75.77
656.16	220.77
656.193	607.77
656.225	945.77
656.258	536.77
656.291	216.77
656.324	162.77
656.356	345.77
656.389	770.77
656.422	689.77
656.454	234.77
656.487	79.77
656.52	53.77
656.552	14.77
656.585	23.77
656.618	11.77
656.65	12.77
656.683	-3.23
656.716	2.77
656.748	0.77
656.781	-6.23
656.814	-4.23
656.846	9.77
656.879	2.77
656.912	-7.23
656.944	-7.23
656.977	-9.23
657.01	-5.23
657.042	6.77
657.075	9.77
657.108	0.77
657.14	8.77
657.173	24.77
657.205	31.77
657.238	8.77
657.271	8.77
657.303	11.77
657.336	7.77
657.369	8.77
657.401	6.77
657.434	2.77
657.466	15.77
657.499	1.77
657.532	0.77
657.564	4.77
657.597	-8.23
657.629	11.77
657.662	5.77
657.694	7.77
657.727	-19.23
657.76	10.77
657.792	-2.23
657.825	-1.23
657.857	2.77
657.89	3.77
657.922	7.77
657.955	-2.23
657.987	15.77
658.02	11.77
658.053	9.77
658.085	5.77
658.118	11.77
658.15	23.77
658.183	12.77
658.215	-10.23
658.248	-2.23
658.28	5.77
658.313	11.77
658.345	10.77
658.378	5.77
658.41	6.77
658.443	-5.23
658.475	9.77
658.508	-3.23
658.54	0.77
658.573	-5.23
658.605	2.77
658.638	-3.23
658.67	11.77
658.703	7.77
658.735	-5.23
658.768	8.77
658.8	-9.23
658.833	32.77
658.865	9.77
658.898	7.77
658.93	-1.23
658.963	-13.23
658.995	-18.23
659.028	-14.23
659.06	4.77
659.092	-7.23
659.125	-20.23
659.157	-6.23
659.19	-17.23
659.222	-13.23
659.255	-8.23
659.287	6.77
659.32	1.77
659.352	7.77
659.384	10.77
659.417	2.77
659.449	8.77
659.482	12.77
659.514	-6.23
659.546	6.77
659.579	-17.23
659.611	-0.23
659.644	-10.23
659.676	-19.23
659.708	-5.23
659.741	2.77
659.773	-4.23
659.806	-2.23
659.838	6.77
659.87	0.77
659.903	-18.23
659.935	-3.23
659.967	19.77
660	-4.23
660.032	-23.23
660.065	8.77
660.097	-2.23
660.129	11.77
660.162	2.77
660.194	-0.23
660.226	19.77
660.259	5.77
660.291	-3.23
660.323	0.77
660.356	6.77
660.388	-20.23
660.42	-2.23
660.453	12.77
660.485	11.77
660.517	7.77
660.55	8.77
660.582	-5.23
660.614	0.77
660.647	5.77
660.679	-15.23
660.711	2.77
660.743	-15.23
660.776	-8.23
660.808	18.77
660.84	2.77
660.873	4.77
660.905	-9.23
660.937	-0.23
660.969	10.77
661.002	1.77
661.034	14.77
661.066	-9.23
661.099	-6.23
661.131	21.77
661.163	-1.23
661.195	15.77
661.228	14.77
661.26	8.77
661.292	-4.23
661.324	-4.23
661.357	6.77
661.389	12.77
661.421	-2.23
661.453	-4.23
661.485	-0.23
661.518	0.77
661.55	-22.23
661.582	-13.23
661.614	0.77
661.647	-16.23
661.679	-11.23
661.711	-5.23
661.743	-2.23
661.775	-6.23
661.808	25.77
661.84	-13.23
661.872	1.77
661.904	-3.23
661.936	-15.23
661.969	-16.23
662.001	-6.23
662.033	-4.23
662.065	-23.23
662.097	5.77
662.129	-9.23
662.162	-6.23
662.194	-0.23
662.226	6.77
662.258	-0.23
662.29	3.77
662.322	-27.23
662.355	-27.23
662.387	17.77
662.419	15.77
662.451	18.77
662.483	9.77
662.515	-3.23
662.547	8.77
662.58	-16.23
662.612	1.77
662.644	-18.23
662.676	1.77
662.708	7.77
662.74	-1.23
662.772	-9.23
662.804	-22.23
662.836	4.77
662.869	-9.23
662.901	4.77
662.933	-2.23
662.965	25.77
662.997	10.77
663.029	-12.23
663.061	0.77
663.093	-4.23
663.125	5.77
663.157	2.77
663.189	0.77
663.221	8.77
663.254	12.77
663.286	10.77
663.318	2.77
663.35	-1.23
663.382	-8.23
663.414	7.77
663.446	14.77
663.478	-19.23
663.51	21.77
663.542	-3.23
663.574	2.77
663.606	22.77
663.638	-18.23
663.67	-1.23
663.702	7.77
663.734	-2.23
663.766	-4.23
663.798	-0.23
663.83	-4.23
663.862	10.77
663.894	13.77
663.926	-6.23
663.958	8.77
663.99	4.77
664.022	-17.23
664.054	11.77
664.086	-16.23
664.118	-0.23
664.15	-10.23
664.182	14.77
664.214	9.77
664.246	21.77
664.278	12.77
664.31	26.77
664.342	14.77
664.374	-2.23
664.406	-7.23
664.438	0.77
664.47	17.77
664.502	0.77
664.534	-11.23
664.566	-11.23
664.598	20.77
664.63	0.77
664.662	-0.23
664.693	5.77
664.725	-3.23
664.757	4.77
664.789	-7.23
664.821	1.77
664.853	-2.23
664.885	-9.23
664.917	0.77
664.949	9.77
664.981	-5.23
665.013	5.77
665.045	-13.23
665.076	-11.23
665.108	-8.23
665.14	-0.23
665.172	9.77
665.204	-11.23
665.236	-17.23
665.268	12.77
665.3	-24.23
665.331	-23.23
665.363	13.77
665.395	-11.23
665.427	2.77
665.459	-6.23
665.491	-8.23
665.523	9.77
665.555	-3.23
665.586	-2.23
665.618	0.77
665.65	-9.23
665.682	15.77
665.714	17.77
665.746	-0.23
665.777	10.77
665.809	-5.23
665.841	0.77
665.873	-14.23
665.905	2.77
665.937	10.77
665.968	6.77
666	0.77
666.032	-19.23
666.064	-22.23
666.096	19.77
666.127	11.77
666.159	22.77
666.191	2.77
666.223	-12.23
666.255	4.77
666.286	13.77
666.318	4.77
666.35	15.77
666.382	-7.23
666.413	9.77
666.445	-11.23
666.477	-0.23
666.509	-7.23
666.54	1.77
666.572	1.77
666.604	-11.23
666.636	-5.23
666.667	26.77
666.699	-1.23
666.731	-11.23
666.763	4.77
666.794	-2.23
666.826	3.77
666.858	-9.23
666.89	-14.23
666.921	1.77
666.953	0.77
666.985	11.77
667.017	20.77
667.048	3.77
667.08	-0.23
667.112	-1.23
667.143	-9.23
667.175	-2.23
667.207	2.77
667.238	9.77
667.27	3.77
667.302	9.77
667.334	-7.23
667.365	6.77
667.397	-10.23
667.429	2.77
667.46	2.77
667.492	9.77
667.524	1.77
667.555	0.77
667.587	7.77
667.619	5.77
667.65	-4.23
667.682	5.77
667.714	20.77
667.745	0.77
667.777	-2.23
667.808	6.77
667.84	9.77
667.872	-10.23
667.903	33.77
667.935	3.77
667.967	-0.23
667.998	18.77
668.03	9.77
668.061	-0.23
668.093	-1.23
668.125	14.77
668.156	8.77
668.188	7.77
668.22	-0.23
668.251	9.77
668.283	-11.23
668.314	18.77
668.346	-7.23
668.377	0.77
668.409	-0.23
668.441	16.77
668.472	5.77
668.504	-1.23
668.535	3.77
668.567	-1.23
668.599	13.77
668.63	10.77
668.662	-17.23
668.693	18.77
668.725	-3.23
668.756	7.77
668.788	4.77
668.819	-2.23
668.851	11.77
668.882	6.77
668.914	-5.23
668.946	4.77
668.977	-18.23
669.009	-10.23
669.04	-9.23
669.072	3.77
669.103	7.77
669.135	12.77
669.166	-0.23
669.198	-5.23
669.229	8.77
669.261	-5.23
669.292	14.77
669.324	20.77
669.355	16.77
669.387	-3.23
669.418	-3.23
669.45	-8.23
669.481	-4.23
669.513	5.77
669.544	14.77
669.576	-6.23
669.607	25.77
669.639	11.77
669.67	-2.23
669.701	8.77
669.733	-0.23
669.764	-4.23
669.796	0.77
669.827	-8.23
669.859	-3.23
669.89	1.77
669.922	7.77
669.953	21.77
669.985	13.77
670.016	-2.23
670.047	-6.23
670.079	-14.23
670.11	4.77
670.142	1.77
670.173	2.77
670.204	3.77
670.236	-2.23
670.267	-0.23
670.299	6.77
670.33	18.77
670.362	22.77
670.393	-1.23
670.424	-1.23
670.456	-4.23
670.487	2.77
670.518	9.77
670.55	12.77
670.581	5.77
670.613	7.77
670.644	-2.23
670.675	-8.23
670.707	-9.23
670.738	-4.23
670.769	9.77
670.801	-7.23
670.832	6.77
670.864	-2.23
670.895	8.77
670.926	-0.23
670.958	-5.23
670.989	-3.23
671.02	-0.23
671.052	6.77
671.083	8.77
671.114	8.77
671.146	-4.23
671.177	10.77
671.208	-12.23
671.24	-17.23
671.271	-13.23
671.302	6.77
671.333	-10.23
671.365	-10.23
671.396	-11.23
671.427	10.77
671.459	7.77
671.49	-4.23
671.521	1.77
671.553	-6.23
671.584	3.77
671.615	-0.23
671.646	4.77
671.678	11.77
671.709	-13.23
671.74	-21.23
671.771	3.77
671.803	5.77
671.834	-1.23
671.865	-10.23
671.896	7.77
671.928	5.77
671.959	-0.23
671.99	-15.23
672.021	-12.23
672.053	-23.23
672.084	10.77
672.115	7.77
672.146	-0.23
672.178	-18.23
672.209	1.77
672.24	3.77
672.271	24.77
672.303	9.77
672.334	4.77
672.365	-5.23
672.396	-3.23
672.427	13.77
672.459	6.77
672.49	16.77
672.521	3.77
672.552	14.77
672.583	16.77
672.615	-15.23
672.646	7.77
672.677	-4.23
672.708	1.77
672.739	-8.23
672.77	17.77
672.802	13.77
672.833	-1.23
672.864	1.77
672.895	9.77
672.926	-3.23
672.957	-2.23
672.989	-9.23
673.02	0.77
673.051	-6.23
673.082	7.77
673.113	-3.23
673.144	3.77
673.175	-3.23
673.206	-6.23
673.238	4.77
673.269	0.77
673.3	-4.23
673.331	0.77
673.362	9.77
673.393	5.77
673.424	7.77
673.455	22.77
673.487	13.77
673.518	3.77
673.549	18.77
673.58	1.77
673.611	1.77
673.642	-5.23
673.673	-17.23
673.704	2.77
673.735	9.77
673.766	-1.23
673.797	-10.23
673.828	-12.23
673.86	-5.23
673.891	-13.23
673.922	-7.23
673.953	6.77
673.984	-0.23
674.015	3.77
674.046	13.77
674.077	10.77
674.108	-2.23
674.139	1.77
674.17	9.77
674.201	-13.23
674.232	-4.23
674.263	3.77
674.294	-0.23
674.325	7.77
674.356	5.77
674.387	20.77
674.418	-9.23
674.449	-8.23
674.48	-4.23
674.511	9.77
674.542	5.77
674.573	11.77
674.604	14.77
674.635	8.77
674.666	6.77
674.697	2.77
674.728	3.77
674.759	-3.23
674.79	2.77
674.821	-15.23
674.852	-0.23
674.883	-11.23
674.914	-0.23
674.945	-0.23
674.976	7.77
675.007	-1.23
675.038	-17.23
675.069	-5.23
675.1	-12.23
675.131	-1.23
675.162	-2.23
675.193	-9.23
675.224	-9.23
675.254	10.77
675.285	15.77
675.316	9.77
675.347	-6.23
675.378	-6.23
675.409	-10.23
675.44	9.77
675.471	6.77
675.502	-3.23
675.533	-7.23
675.564	-4.23
675.595	-16.23
675.625	17.77
675.656	7.77
675.687	-2.23
675.718	-9.23
675.749	-2.23
675.78	11.77
675.811	8.77
675.842	2.77
675.873	2.77
675.903	5.77
675.934	5.77
675.965	5.77
675.996	-9.23
676.027	5.77
676.058	-6.23
676.089	-13.23
676.119	4.77
676.15	-3.23
676.181	8.77
676.212	-4.23
676.243	11.77
676.274	-14.23
676.304	8.77
676.335	-20.23
676.366	-5.23
676.397	0.77
676.428	9.77
676.459	27.77
676.489	14.77
676.52	1.77
676.551	3.77
676.582	0.77
676.613	9.77
676.643	-10.23
676.674	7.77
676.705	8.77
676.736	2.77
676.767	10.77
676.797	14.77
676.828	8.77
676.859	-3.23
676.89	-2.23
676.92	6.77
676.951	0.77
676.982	-3.23
677.013	6.77
677.044	13.77
677.074	-13.23
677.105	-0.23
677.136	17.77
677.167	10.77
677.197	9.77
677.228	8.77
677.259	-21.23
677.289	8.77
677.32	-18.23
677.351	4.77
677.382	0.77
677.412	3.77
677.443	5.77
677.474	-7.23
677.505	-8.23
677.535	5.77
677.566	5.77
677.597	-10.23
677.627	-17.23
677.658	1.77
677.689	-6.23
677.72	-5.23
677.75	3.77
677.781	-0.23
677.812	7.77
677.842	9.77
677.873	14.77
677.904	17.77
677.934	-2.23
677.965	1.77
677.996	-8.23
678.026	5.77
678.057	9.77
678.088	-15.23
678.118	2.77
678.149	-0.23
678.18	-0.23
678.21	8.77
678.241	1.77
678.272	3.77
678.302	7.77
678.333	14.77
678.363	24.77
678.394	6.77
678.425	15.77
678.455	2.77
678.486	33.77
678.517	2.77
678.547	9.77
678.578	7.77
678.608	-7.23
678.639	16.77
678.67	-3.23
678.7	-7.23
678.731	-5.23
678.761	-7.23
678.792	0.77
678.823	-12.23
678.853	4.77
678.884	-12.23
678.914	12.77
678.945	5.77
678.975	-8.23
679.006	9.77
679.037	6.77
679.067	25.77
679.098	6.77
679.128	1.77
679.159	-9.23
679.189	7.77
679.22	4.77
679.25	-0.23
679.281	-3.23
679.312	-3.23
679.342	9.77
679.373	26.77
679.403	8.77
679.434	20.77
679.464	-6.23
679.495	0.77
679.525	5.77
679.556	-3.23
679.586	-0.23
679.617	4.77
679.647	-8.23
679.678	5.77
679.708	-1.23
679.739	-10.23
679.769	-0.23
679.8	-0.23
679.83	-1.23
679.861	11.77
679.891	5.77
679.922	-1.23
679.952	7.77
679.983	19.77
680.013	15.77
680.044	4.77
680.074	13.77
680.105	17.77
680.135	-2.23
680.165	-0.23
680.196	-0.23
680.226	-6.23
680.257	9.77
680.287	5.77
680.318	0.77
680.348	-24.23
680.379	-10.23
680.409	-21.23
680.439	-2.23
680.47	1.77
680.5	-11.23
680.531	5.77
680.561	9.77
680.592	-2.23
680.622	7.77
680.652	13.77
680.683	10.77
680.713	6.77
680.744	4.77
680.774	6.77
680.804	10.77
680.835	-5.23
680.865	-11.23
680.896	11.77
680.926	23.77
680.956	0.77
680.987	0.77
681.017	3.77
681.047	-5.23
681.078	-9.23
681.108	10.77
681.139	11.77
681.169	8.77
681.199	8.77
681.23	19.77
681.26	6.77
681.29	10.77
681.321	-20.23
681.351	1.77
681.381	-17.23
681.412	11.77
681.442	13.77
681.472	28.77
681.503	14.77
681.533	1.77
681.563	0.77
681.594	4.77
681.624	5.77
681.654	-8.23
681.685	-10.23
681.715	12.77
681.745	5.77
681.775	-7.23
681.806	7.77
681.836	8.77
681.866	-5.23
681.897	0.77
681.927	6.77
681.957	0.77
681.987	8.77
682.018	-0.23
682.048	12.77
682.078	17.77
682.109	24.77
682.139	3.77
682.169	5.77
682.199	-15.23
682.23	11.77
682.26	1.77
682.29	-8.23
682.32	9.77
682.351	-5.23
682.381	0.77
682.411	2.77
682.441	-2.23
682.472	6.77
682.502	8.77
682.532	8.77
682.562	8.77
682.592	22.77
