Data from HighRes_H2D2_15_04_11_07_2024_HR4C61891__12__15-05-35-643.txt Node

Date: Thu Nov 07 15:05:35 EST 2024
User: crc00042
Spectrometer: HR4C6189
Trigger mode: 4
Integration Time (sec): 1.000000E-1
Scans to average: 1
Electric dark correction enabled: true
Nonlinearity correction enabled: false
Boxcar width: 0
XAxis mode: Wavelengths
Number of Pixels in Spectrum: 3648
>>>>>Begin Spectral Data<<<<<
639.567	-75.46
639.602	-75.46
639.636	-75.46
639.67	-50.46
639.704	-11.46
639.738	-8.46
639.773	8.54
639.807	-10.46
639.841	7.54
639.875	7.54
639.909	-3.46
639.943	1.54
639.978	-0.46
640.012	-0.46
640.046	8.54
640.08	7.54
640.114	-4.46
640.148	-13.46
640.182	-13.46
640.217	15.54
640.251	31.54
640.285	20.54
640.319	-15.46
640.353	2.54
640.387	12.54
640.421	-10.46
640.455	6.54
640.49	-2.46
640.524	-4.46
640.558	7.54
640.592	-7.46
640.626	-6.46
640.66	11.54
640.694	-16.46
640.728	17.54
640.762	10.54
640.796	19.54
640.83	15.54
640.865	-2.46
640.899	-0.46
640.933	-11.46
640.967	5.54
641.001	10.54
641.035	-0.46
641.069	-4.46
641.103	1.54
641.137	-2.46
641.171	-9.46
641.205	13.54
641.239	2.54
641.273	19.54
641.307	0.54
641.341	0.54
641.375	6.54
641.409	-2.46
641.443	-2.46
641.477	-0.46
641.511	7.54
641.545	-9.46
641.579	-8.46
641.614	3.54
641.648	8.54
641.682	-10.46
641.716	26.54
641.75	14.54
641.784	16.54
641.818	6.54
641.852	0.54
641.886	0.54
641.919	30.54
641.953	-3.46
641.987	1.54
642.021	-12.46
642.055	7.54
642.089	1.54
642.123	2.54
642.157	-6.46
642.191	-3.46
642.225	15.54
642.259	-1.46
642.293	10.54
642.327	-1.46
642.361	-5.46
642.395	7.54
642.429	11.54
642.463	18.54
642.497	23.54
642.531	6.54
642.565	5.54
642.599	7.54
642.633	18.54
642.666	7.54
642.7	20.54
642.734	5.54
642.768	-11.46
642.802	6.54
642.836	8.54
642.87	-23.46
642.904	11.54
642.938	6.54
642.972	-3.46
643.005	1.54
643.039	19.54
643.073	6.54
643.107	11.54
643.141	14.54
643.175	2.54
643.209	-5.46
643.243	15.54
643.276	-0.46
643.31	-2.46
643.344	-3.46
643.378	-5.46
643.412	5.54
643.446	7.54
643.48	-5.46
643.513	12.54
643.547	6.54
643.581	-2.46
643.615	1.54
643.649	2.54
643.683	0.54
643.716	13.54
643.75	11.54
643.784	-7.46
643.818	17.54
643.852	-11.46
643.886	10.54
643.919	17.54
643.953	-1.46
643.987	-7.46
644.021	16.54
644.055	5.54
644.088	-7.46
644.122	-12.46
644.156	-8.46
644.19	8.54
644.224	6.54
644.257	6.54
644.291	11.54
644.325	7.54
644.359	7.54
644.392	10.54
644.426	8.54
644.46	-8.46
644.494	2.54
644.527	-4.46
644.561	4.54
644.595	4.54
644.629	7.54
644.662	0.54
644.696	17.54
644.73	9.54
644.764	-6.46
644.797	-5.46
644.831	7.54
644.865	11.54
644.899	0.54
644.932	40.54
644.966	9.54
645	14.54
645.033	-1.46
645.067	-6.46
645.101	1.54
645.135	-3.46
645.168	-13.46
645.202	-17.46
645.236	3.54
645.269	17.54
645.303	1.54
645.337	-7.46
645.37	-15.46
645.404	-3.46
645.438	6.54
645.471	-0.46
645.505	11.54
645.539	11.54
645.572	3.54
645.606	-2.46
645.64	6.54
645.673	-3.46
645.707	10.54
645.741	-3.46
645.774	-10.46
645.808	10.54
645.842	-18.46
645.875	-4.46
645.909	-6.46
645.943	-9.46
645.976	-8.46
646.01	1.54
646.043	-0.46
646.077	14.54
646.111	20.54
646.144	37.54
646.178	12.54
646.212	-18.46
646.245	5.54
646.279	8.54
646.312	2.54
646.346	8.54
646.38	-14.46
646.413	8.54
646.447	2.54
646.48	-6.46
646.514	10.54
646.547	-4.46
646.581	-4.46
646.615	11.54
646.648	-12.46
646.682	4.54
646.715	-0.46
646.749	-1.46
646.782	-8.46
646.816	-0.46
646.85	20.54
646.883	-6.46
646.917	5.54
646.95	-1.46
646.984	1.54
647.017	6.54
647.051	-5.46
647.084	6.54
647.118	0.54
647.151	6.54
647.185	-7.46
647.218	-8.46
647.252	15.54
647.285	6.54
647.319	-19.46
647.353	-0.46
647.386	25.54
647.42	5.54
647.453	-10.46
647.487	-0.46
647.52	6.54
647.553	10.54
647.587	-6.46
647.62	2.54
647.654	2.54
647.687	4.54
647.721	0.54
647.754	8.54
647.788	0.54
647.821	5.54
647.855	6.54
647.888	-2.46
647.922	12.54
647.955	-2.46
647.989	9.54
648.022	-4.46
648.055	1.54
648.089	-10.46
648.122	17.54
648.156	0.54
648.189	3.54
648.223	12.54
648.256	16.54
648.29	-2.46
648.323	-10.46
648.356	6.54
648.39	4.54
648.423	6.54
648.457	-7.46
648.49	10.54
648.523	4.54
648.557	-0.46
648.59	-6.46
648.624	-8.46
648.657	-2.46
648.69	14.54
648.724	11.54
648.757	7.54
648.791	5.54
648.824	16.54
648.857	23.54
648.891	-4.46
648.924	20.54
648.957	7.54
648.991	2.54
649.024	8.54
649.057	-13.46
649.091	-0.46
649.124	14.54
649.158	11.54
649.191	16.54
649.224	9.54
649.258	3.54
649.291	-14.46
649.324	-9.46
649.358	2.54
649.391	13.54
649.424	17.54
649.458	-0.46
649.491	-6.46
649.524	-9.46
649.557	-13.46
649.591	-6.46
649.624	5.54
649.657	-5.46
649.691	-7.46
649.724	5.54
649.757	17.54
649.791	2.54
649.824	14.54
649.857	13.54
649.89	2.54
649.924	-6.46
649.957	-13.46
649.99	-8.46
650.023	-5.46
650.057	-1.46
650.09	13.54
650.123	-1.46
650.157	27.54
650.19	3.54
650.223	7.54
650.256	-7.46
650.29	-1.46
650.323	7.54
650.356	10.54
650.389	7.54
650.423	1.54
650.456	4.54
650.489	4.54
650.522	-4.46
650.555	7.54
650.589	12.54
650.622	5.54
650.655	18.54
650.688	7.54
650.721	4.54
650.755	-3.46
650.788	9.54
650.821	5.54
650.854	11.54
650.887	-7.46
650.921	2.54
650.954	-3.46
650.987	6.54
651.02	-3.46
651.053	-17.46
651.087	-19.46
651.12	11.54
651.153	12.54
651.186	4.54
651.219	-20.46
651.252	10.54
651.286	5.54
651.319	-15.46
651.352	0.54
651.385	-0.46
651.418	1.54
651.451	17.54
651.484	15.54
651.518	-1.46
651.551	31.54
651.584	-7.46
651.617	11.54
651.65	14.54
651.683	7.54
651.716	-6.46
651.749	-1.46
651.783	-25.46
651.816	-1.46
651.849	11.54
651.882	-4.46
651.915	-6.46
651.948	10.54
651.981	8.54
652.014	-5.46
652.047	-6.46
652.08	-14.46
652.114	-4.46
652.147	-8.46
652.18	14.54
652.213	38.54
652.246	11.54
652.279	-5.46
652.312	20.54
652.345	9.54
652.378	2.54
652.411	24.54
652.444	10.54
652.477	10.54
652.51	-7.46
652.543	-8.46
652.576	16.54
652.609	-3.46
652.642	5.54
652.675	16.54
652.709	2.54
652.742	13.54
652.775	-0.46
652.808	22.54
652.841	6.54
652.874	8.54
652.907	3.54
652.94	3.54
652.973	-3.46
653.006	-10.46
653.039	-0.46
653.072	8.54
653.105	-2.46
653.138	-5.46
653.171	0.54
653.204	-2.46
653.237	-3.46
653.27	-4.46
653.303	12.54
653.336	9.54
653.368	-9.46
653.401	3.54
653.434	12.54
653.467	21.54
653.5	-16.46
653.533	-21.46
653.566	-6.46
653.599	11.54
653.632	-1.46
653.665	6.54
653.698	-23.46
653.731	-11.46
653.764	6.54
653.797	-0.46
653.83	12.54
653.863	-9.46
653.896	0.54
653.929	3.54
653.961	15.54
653.994	7.54
654.027	4.54
654.06	10.54
654.093	-1.46
654.126	8.54
654.159	-3.46
654.192	-7.46
654.225	10.54
654.258	3.54
654.29	2.54
654.323	12.54
654.356	0.54
654.389	10.54
654.422	-4.46
654.455	8.54
654.488	4.54
654.521	-16.46
654.553	-2.46
654.586	19.54
654.619	4.54
654.652	-9.46
654.685	-11.46
654.718	7.54
654.751	-0.46
654.783	1.54
654.816	12.54
654.849	-11.46
654.882	-10.46
654.915	-9.46
654.948	-1.46
654.98	-2.46
655.013	11.54
655.046	0.54
655.079	8.54
655.112	8.54
655.144	5.54
655.177	-0.46
655.21	23.54
655.243	22.54
655.276	0.54
655.308	3.54
655.341	11.54
655.374	14.54
655.407	-0.46
655.44	-3.46
655.472	18.54
655.505	8.54
655.538	-0.46
655.571	24.54
655.603	-0.46
655.636	-13.46
655.669	7.54
655.702	-3.46
655.734	-20.46
655.767	-5.46
655.8	13.54
655.833	8.54
655.865	6.54
655.898	16.54
655.931	20.54
655.964	30.54
655.996	24.54
656.029	21.54
656.062	29.54
656.095	38.54
656.127	96.54
656.16	207.54
656.193	627.54
656.225	981.54
656.258	572.54
656.291	222.54
656.324	201.54
656.356	344.54
656.389	782.54
656.422	684.54
656.454	265.54
656.487	87.54
656.52	50.54
656.552	15.54
656.585	17.54
656.618	14.54
656.65	21.54
656.683	0.54
656.716	4.54
656.748	-12.46
656.781	-10.46
656.814	-11.46
656.846	-1.46
656.879	-8.46
656.912	12.54
656.944	0.54
656.977	-8.46
657.01	-4.46
657.042	0.54
657.075	14.54
657.108	-20.46
657.14	11.54
657.173	14.54
657.205	15.54
657.238	13.54
657.271	12.54
657.303	-16.46
657.336	0.54
657.369	3.54
657.401	-2.46
657.434	3.54
657.466	-4.46
657.499	6.54
657.532	-11.46
657.564	6.54
657.597	-0.46
657.629	13.54
657.662	11.54
657.694	1.54
657.727	-10.46
657.76	9.54
657.792	0.54
657.825	-13.46
657.857	7.54
657.89	6.54
657.922	11.54
657.955	-11.46
657.987	-2.46
658.02	-4.46
658.053	14.54
658.085	16.54
658.118	28.54
658.15	29.54
658.183	23.54
658.215	0.54
658.248	6.54
658.28	-4.46
658.313	25.54
658.345	13.54
658.378	-2.46
658.41	-1.46
658.443	8.54
658.475	10.54
658.508	-8.46
658.54	-9.46
658.573	-1.46
658.605	5.54
658.638	1.54
658.67	-9.46
658.703	1.54
658.735	-21.46
658.768	7.54
658.8	-8.46
658.833	16.54
658.865	5.54
658.898	1.54
658.93	-4.46
658.963	0.54
658.995	-23.46
659.028	2.54
659.06	7.54
659.092	11.54
659.125	2.54
659.157	4.54
659.19	-4.46
659.222	-14.46
659.255	2.54
659.287	5.54
659.32	-1.46
659.352	3.54
659.384	9.54
659.417	8.54
659.449	6.54
659.482	-0.46
659.514	-19.46
659.546	-1.46
659.579	-7.46
659.611	3.54
659.644	0.54
659.676	-5.46
659.708	-10.46
659.741	-11.46
659.773	-14.46
659.806	-7.46
659.838	15.54
659.87	-14.46
659.903	-2.46
659.935	3.54
659.967	6.54
660	-4.46
660.032	-0.46
660.065	12.54
660.097	5.54
660.129	0.54
660.162	-8.46
660.194	8.54
660.226	15.54
660.259	17.54
660.291	8.54
660.323	7.54
660.356	2.54
660.388	5.54
660.42	-4.46
660.453	-5.46
660.485	5.54
660.517	12.54
660.55	7.54
660.582	0.54
660.614	8.54
660.647	3.54
660.679	2.54
660.711	-3.46
660.743	-10.46
660.776	-11.46
660.808	-0.46
660.84	-0.46
660.873	13.54
660.905	4.54
660.937	-1.46
660.969	-5.46
661.002	4.54
661.034	19.54
661.066	-2.46
661.099	13.54
661.131	20.54
661.163	6.54
661.195	-3.46
661.228	12.54
661.26	-3.46
661.292	-7.46
661.324	-2.46
661.357	0.54
661.389	-0.46
661.421	5.54
661.453	-0.46
661.485	0.54
661.518	-8.46
661.55	-16.46
661.582	-27.46
661.614	-6.46
661.647	7.54
661.679	-6.46
661.711	2.54
661.743	-4.46
661.775	16.54
661.808	37.54
661.84	-18.46
661.872	-4.46
661.904	1.54
661.936	-7.46
661.969	-16.46
662.001	-11.46
662.033	-16.46
662.065	-20.46
662.097	9.54
662.129	25.54
662.162	17.54
662.194	12.54
662.226	18.54
662.258	18.54
662.29	4.54
662.322	-2.46
662.355	-23.46
662.387	12.54
662.419	6.54
662.451	-1.46
662.483	6.54
662.515	-10.46
662.547	-5.46
662.58	-9.46
662.612	-2.46
662.644	-3.46
662.676	7.54
662.708	15.54
662.74	10.54
662.772	8.54
662.804	13.54
662.836	17.54
662.869	7.54
662.901	9.54
662.933	3.54
662.965	16.54
662.997	-2.46
663.029	-21.46
663.061	-2.46
663.093	5.54
663.125	0.54
663.157	18.54
663.189	-2.46
663.221	10.54
663.254	4.54
663.286	5.54
663.318	0.54
663.35	4.54
663.382	8.54
663.414	11.54
663.446	6.54
663.478	-3.46
663.51	18.54
663.542	-5.46
663.574	7.54
663.606	-5.46
663.638	-4.46
663.67	1.54
663.702	-6.46
663.734	-8.46
663.766	0.54
663.798	-8.46
663.83	11.54
663.862	3.54
663.894	6.54
663.926	1.54
663.958	0.54
663.99	-25.46
664.022	-1.46
664.054	6.54
664.086	-9.46
664.118	-16.46
664.15	-15.46
664.182	-0.46
664.214	-6.46
664.246	9.54
664.278	9.54
664.31	18.54
664.342	2.54
664.374	6.54
664.406	-6.46
664.438	-3.46
664.47	27.54
664.502	-5.46
664.534	5.54
664.566	-9.46
664.598	26.54
664.63	-6.46
664.662	9.54
664.693	-1.46
664.725	-2.46
664.757	-17.46
664.789	-13.46
664.821	6.54
664.853	7.54
664.885	3.54
664.917	-5.46
664.949	9.54
664.981	14.54
665.013	12.54
665.045	8.54
665.076	-11.46
665.108	-5.46
665.14	1.54
665.172	4.54
665.204	-9.46
665.236	-8.46
665.268	16.54
665.3	-7.46
665.331	-24.46
665.363	7.54
665.395	-4.46
665.427	-6.46
665.459	6.54
665.491	-6.46
665.523	-0.46
665.555	-6.46
665.586	8.54
665.618	-0.46
665.65	-2.46
665.682	-8.46
665.714	6.54
665.746	14.54
665.777	6.54
665.809	3.54
665.841	12.54
665.873	21.54
665.905	-9.46
665.937	14.54
665.968	3.54
666	-6.46
666.032	1.54
666.064	-22.46
666.096	5.54
666.127	4.54
666.159	8.54
666.191	-1.46
666.223	1.54
666.255	6.54
666.286	5.54
666.318	-3.46
666.35	13.54
666.382	13.54
666.413	-4.46
666.445	-21.46
666.477	-3.46
666.509	15.54
666.54	1.54
666.572	-2.46
666.604	6.54
666.636	7.54
666.667	6.54
666.699	6.54
666.731	10.54
666.763	0.54
666.794	7.54
666.826	-2.46
666.858	-13.46
666.89	14.54
666.921	6.54
666.953	-14.46
666.985	20.54
667.017	14.54
667.048	-12.46
667.08	-17.46
667.112	-7.46
667.143	3.54
667.175	6.54
667.207	7.54
667.238	17.54
667.27	12.54
667.302	14.54
667.334	-14.46
667.365	19.54
667.397	-4.46
667.429	-0.46
667.46	6.54
667.492	5.54
667.524	1.54
667.555	-6.46
667.587	-3.46
667.619	-8.46
667.65	0.54
667.682	9.54
667.714	19.54
667.745	21.54
667.777	1.54
667.808	6.54
667.84	18.54
667.872	1.54
667.903	6.54
667.935	-14.46
667.967	-8.46
667.998	-3.46
668.03	-1.46
668.061	-1.46
668.093	10.54
668.125	4.54
668.156	1.54
668.188	-13.46
668.22	-6.46
668.251	17.54
668.283	-1.46
668.314	7.54
668.346	5.54
668.377	-5.46
668.409	-6.46
668.441	8.54
668.472	0.54
668.504	11.54
668.535	16.54
668.567	0.54
668.599	-9.46
668.63	0.54
668.662	-0.46
668.693	13.54
668.725	1.54
668.756	3.54
668.788	4.54
668.819	7.54
668.851	0.54
668.882	-12.46
668.914	0.54
668.946	3.54
668.977	5.54
669.009	-0.46
669.04	-27.46
669.072	6.54
669.103	-1.46
669.135	0.54
669.166	-5.46
669.198	10.54
669.229	5.54
669.261	13.54
669.292	5.54
669.324	1.54
669.355	7.54
669.387	-10.46
669.418	15.54
669.45	-6.46
669.481	9.54
669.513	6.54
669.544	9.54
669.576	-4.46
669.607	27.54
669.639	17.54
669.67	-5.46
669.701	3.54
669.733	-8.46
669.764	-13.46
669.796	2.54
669.827	-1.46
669.859	-3.46
669.89	-1.46
669.922	11.54
669.953	5.54
669.985	12.54
670.016	14.54
670.047	7.54
670.079	11.54
670.11	8.54
670.142	6.54
670.173	1.54
670.204	-5.46
670.236	-2.46
670.267	-4.46
670.299	7.54
670.33	-5.46
670.362	8.54
670.393	-5.46
670.424	11.54
670.456	-13.46
670.487	-7.46
670.518	-11.46
670.55	14.54
670.581	11.54
670.613	25.54
670.644	-6.46
670.675	-6.46
670.707	-5.46
670.738	-2.46
670.769	-3.46
670.801	-10.46
670.832	4.54
670.864	3.54
670.895	16.54
670.926	19.54
670.958	8.54
670.989	8.54
671.02	-8.46
671.052	-4.46
671.083	-4.46
671.114	11.54
671.146	20.54
671.177	-1.46
671.208	1.54
671.24	-5.46
671.271	18.54
671.302	1.54
671.333	-6.46
671.365	-23.46
671.396	-9.46
671.427	20.54
671.459	18.54
671.49	-1.46
671.521	-3.46
671.553	-7.46
671.584	20.54
671.615	15.54
671.646	18.54
671.678	12.54
671.709	-18.46
671.74	-20.46
671.771	-5.46
671.803	-9.46
671.834	-3.46
671.865	2.54
671.896	9.54
671.928	5.54
671.959	-5.46
671.99	4.54
672.021	1.54
672.053	10.54
672.084	15.54
672.115	14.54
672.146	0.54
672.178	0.54
672.209	-8.46
672.24	-0.46
672.271	33.54
672.303	4.54
672.334	-4.46
672.365	-5.46
672.396	-2.46
672.427	8.54
672.459	6.54
672.49	33.54
672.521	13.54
672.552	8.54
672.583	31.54
672.615	14.54
672.646	15.54
672.677	3.54
672.708	15.54
672.739	13.54
672.77	10.54
672.802	-8.46
672.833	-7.46
672.864	2.54
672.895	1.54
672.926	3.54
672.957	-1.46
672.989	3.54
673.02	5.54
673.051	-1.46
673.082	3.54
673.113	1.54
673.144	-5.46
673.175	4.54
673.206	-17.46
673.238	-7.46
673.269	8.54
673.3	10.54
673.331	12.54
673.362	12.54
673.393	12.54
673.424	15.54
673.455	7.54
673.487	7.54
673.518	1.54
673.549	-2.46
673.58	4.54
673.611	8.54
673.642	7.54
673.673	1.54
673.704	4.54
673.735	-17.46
673.766	4.54
673.797	1.54
673.828	1.54
673.86	-6.46
673.891	-23.46
673.922	-10.46
673.953	-6.46
673.984	13.54
674.015	11.54
674.046	7.54
674.077	0.54
674.108	-5.46
674.139	-6.46
674.17	-0.46
674.201	-9.46
674.232	-4.46
674.263	2.54
674.294	-11.46
674.325	-1.46
674.356	7.54
674.387	19.54
674.418	12.54
674.449	5.54
674.48	-6.46
674.511	8.54
674.542	3.54
674.573	-2.46
674.604	2.54
674.635	6.54
674.666	18.54
674.697	8.54
674.728	21.54
674.759	10.54
674.79	-14.46
674.821	13.54
674.852	-2.46
674.883	-6.46
674.914	-7.46
674.945	-0.46
674.976	3.54
675.007	-10.46
675.038	-25.46
675.069	-6.46
675.1	-6.46
675.131	2.54
675.162	-17.46
675.193	-5.46
675.224	3.54
675.254	2.54
675.285	2.54
675.316	12.54
675.347	7.54
675.378	-3.46
675.409	6.54
675.44	16.54
675.471	4.54
675.502	-4.46
675.533	1.54
675.564	13.54
675.595	-2.46
675.625	30.54
675.656	-3.46
675.687	-0.46
675.718	-8.46
675.749	1.54
675.78	18.54
675.811	-15.46
675.842	13.54
675.873	5.54
675.903	5.54
675.934	2.54
675.965	-0.46
675.996	-6.46
676.027	8.54
676.058	-3.46
676.089	-6.46
676.119	-14.46
676.15	-4.46
676.181	2.54
676.212	1.54
676.243	15.54
676.274	-2.46
676.304	15.54
676.335	8.54
676.366	7.54
676.397	-5.46
676.428	-9.46
676.459	1.54
676.489	16.54
676.52	-4.46
676.551	-13.46
676.582	-6.46
676.613	-2.46
676.643	-7.46
676.674	6.54
676.705	1.54
676.736	-10.46
676.767	16.54
676.797	17.54
676.828	9.54
676.859	8.54
676.89	-20.46
676.92	13.54
676.951	18.54
676.982	6.54
677.013	8.54
677.044	14.54
677.074	13.54
677.105	-9.46
677.136	11.54
677.167	3.54
677.197	14.54
677.228	-10.46
677.259	-22.46
677.289	2.54
677.32	-6.46
677.351	10.54
677.382	-3.46
677.412	-6.46
677.443	-23.46
677.474	-2.46
677.505	-10.46
677.535	-3.46
677.566	-9.46
677.597	-16.46
677.627	-2.46
677.658	-0.46
677.689	-0.46
677.72	-2.46
677.75	-9.46
677.781	8.54
677.812	17.54
677.842	-2.46
677.873	5.54
677.904	12.54
677.934	16.54
677.965	5.54
677.996	-3.46
678.026	-0.46
678.057	-5.46
678.088	-19.46
678.118	2.54
678.149	-11.46
678.18	3.54
678.21	8.54
678.241	-3.46
678.272	-7.46
678.302	-3.46
678.333	10.54
678.363	21.54
678.394	15.54
678.425	0.54
678.455	-2.46
678.486	6.54
678.517	6.54
678.547	8.54
678.578	11.54
678.608	-7.46
678.639	-1.46
678.67	6.54
678.7	-1.46
678.731	2.54
678.761	6.54
678.792	16.54
678.823	18.54
678.853	8.54
678.884	-7.46
678.914	-4.46
678.945	1.54
678.975	-15.46
679.006	-11.46
679.037	5.54
679.067	28.54
679.098	-7.46
679.128	-1.46
679.159	-6.46
679.189	4.54
679.22	-9.46
679.25	9.54
679.281	6.54
679.312	-3.46
679.342	17.54
679.373	16.54
679.403	6.54
679.434	11.54
679.464	-5.46
679.495	-6.46
679.525	-1.46
679.556	-9.46
679.586	2.54
679.617	6.54
679.647	0.54
679.678	5.54
679.708	-4.46
679.739	-1.46
679.769	4.54
679.8	0.54
679.83	3.54
679.861	11.54
679.891	-3.46
679.922	-23.46
679.952	9.54
679.983	6.54
680.013	-1.46
680.044	3.54
680.074	11.54
680.105	13.54
680.135	12.54
680.165	15.54
680.196	3.54
680.226	5.54
680.257	9.54
680.287	2.54
680.318	-3.46
680.348	-3.46
680.379	14.54
680.409	11.54
680.439	0.54
680.47	-4.46
680.5	-1.46
680.531	0.54
680.561	8.54
680.592	12.54
680.622	11.54
680.652	0.54
680.683	6.54
680.713	5.54
680.744	-0.46
680.774	-10.46
680.804	6.54
680.835	-15.46
680.865	-22.46
680.896	-4.46
680.926	19.54
680.956	13.54
680.987	13.54
681.017	-10.46
681.047	2.54
681.078	-7.46
681.108	3.54
681.139	-4.46
681.169	3.54
681.199	-10.46
681.23	0.54
681.26	6.54
681.29	7.54
681.321	-22.46
681.351	6.54
681.381	-13.46
681.412	-6.46
681.442	1.54
681.472	25.54
681.503	18.54
681.533	11.54
681.563	-8.46
681.594	4.54
681.624	0.54
681.654	-8.46
681.685	-17.46
681.715	6.54
681.745	14.54
681.775	14.54
681.806	-8.46
681.836	-0.46
681.866	-16.46
681.897	-0.46
681.927	-5.46
681.957	-21.46
681.987	7.54
682.018	-17.46
682.048	6.54
682.078	11.54
682.109	21.54
682.139	7.54
682.169	0.54
682.199	16.54
682.23	-4.46
682.26	5.54
682.29	-11.46
682.32	12.54
682.351	15.54
682.381	9.54
682.411	-12.46
682.441	-11.46
682.472	-25.46
682.502	0.54
682.532	7.54
682.562	-4.46
682.592	-0.46
