Data from HighRes_H2D2_15_04_11_07_2024_HR4C61891__28__15-05-37-243.txt Node

Date: Thu Nov 07 15:05:37 EST 2024
User: crc00042
Spectrometer: HR4C6189
Trigger mode: 4
Integration Time (sec): 1.000000E-1
Scans to average: 1
Electric dark correction enabled: true
Nonlinearity correction enabled: false
Boxcar width: 0
XAxis mode: Wavelengths
Number of Pixels in Spectrum: 3648
>>>>>Begin Spectral Data<<<<<
639.567	-108.77
639.602	-108.77
639.636	-108.77
639.67	-54.77
639.704	-21.77
639.738	-6.77
639.773	11.23
639.807	-6.77
639.841	-3.77
639.875	13.23
639.909	1.23
639.943	-0.77
639.978	-4.77
640.012	-4.77
640.046	10.23
640.08	-0.77
640.114	7.23
640.148	-14.77
640.182	-20.77
640.217	-2.77
640.251	25.23
640.285	7.23
640.319	-1.77
640.353	14.23
640.387	9.23
640.421	-0.77
640.455	10.23
640.49	-1.77
640.524	-4.77
640.558	-9.77
640.592	13.23
640.626	9.23
640.66	14.23
640.694	-2.77
640.728	1.23
640.762	10.23
640.796	11.23
640.83	9.23
640.865	-7.77
640.899	1.23
640.933	4.23
640.967	11.23
641.001	27.23
641.035	14.23
641.069	15.23
641.103	-10.77
641.137	-0.77
641.171	-19.77
641.205	11.23
641.239	3.23
641.273	1.23
641.307	8.23
641.341	-4.77
641.375	11.23
641.409	0.23
641.443	3.23
641.477	-0.77
641.511	16.23
641.545	1.23
641.579	0.23
641.614	6.23
641.648	5.23
641.682	-2.77
641.716	9.23
641.75	6.23
641.784	-0.77
641.818	4.23
641.852	9.23
641.886	-10.77
641.919	13.23
641.953	5.23
641.987	-4.77
642.021	8.23
642.055	19.23
642.089	-6.77
642.123	-11.77
642.157	-6.77
642.191	-5.77
642.225	4.23
642.259	-4.77
642.293	17.23
642.327	13.23
642.361	-9.77
642.395	15.23
642.429	3.23
642.463	15.23
642.497	13.23
642.531	14.23
642.565	4.23
642.599	-0.77
642.633	-9.77
642.666	11.23
642.7	11.23
642.734	26.23
642.768	-4.77
642.802	7.23
642.836	15.23
642.87	-7.77
642.904	16.23
642.938	-0.77
642.972	-0.77
643.005	-9.77
643.039	6.23
643.073	-0.77
643.107	-2.77
643.141	5.23
643.175	7.23
643.209	-3.77
643.243	4.23
643.276	29.23
643.31	3.23
643.344	-1.77
643.378	4.23
643.412	12.23
643.446	5.23
643.48	-0.77
643.513	12.23
643.547	12.23
643.581	-0.77
643.615	7.23
643.649	1.23
643.683	6.23
643.716	-2.77
643.75	12.23
643.784	-12.77
643.818	9.23
643.852	4.23
643.886	-12.77
643.919	0.23
643.953	-5.77
643.987	4.23
644.021	9.23
644.055	6.23
644.088	-13.77
644.122	0.23
644.156	-1.77
644.19	7.23
644.224	8.23
644.257	19.23
644.291	12.23
644.325	-18.77
644.359	-7.77
644.392	11.23
644.426	10.23
644.46	5.23
644.494	-15.77
644.527	-18.77
644.561	1.23
644.595	7.23
644.629	-4.77
644.662	2.23
644.696	-1.77
644.73	-2.77
644.764	6.23
644.797	-8.77
644.831	-0.77
644.865	-10.77
644.899	-9.77
644.932	7.23
644.966	8.23
645	-0.77
645.033	10.23
645.067	-1.77
645.101	4.23
645.135	-12.77
645.168	5.23
645.202	-13.77
645.236	-4.77
645.269	10.23
645.303	-15.77
645.337	-24.77
645.37	-13.77
645.404	-5.77
645.438	5.23
645.471	-8.77
645.505	1.23
645.539	-6.77
645.572	-18.77
645.606	-19.77
645.64	-2.77
645.673	0.23
645.707	16.23
645.741	-2.77
645.774	-9.77
645.808	10.23
645.842	-13.77
645.875	11.23
645.909	-4.77
645.943	-16.77
645.976	-13.77
646.01	13.23
646.043	18.23
646.077	6.23
646.111	14.23
646.144	-1.77
646.178	11.23
646.212	-34.77
646.245	-13.77
646.279	-1.77
646.312	15.23
646.346	10.23
646.38	12.23
646.413	4.23
646.447	3.23
646.48	-9.77
646.514	4.23
646.547	-1.77
646.581	-15.77
646.615	-6.77
646.648	10.23
646.682	7.23
646.715	-18.77
646.749	9.23
646.782	-0.77
646.816	12.23
646.85	1.23
646.883	3.23
646.917	-0.77
646.95	10.23
646.984	-1.77
647.017	-9.77
647.051	6.23
647.084	-2.77
647.118	-6.77
647.151	-0.77
647.185	0.23
647.218	-14.77
647.252	-9.77
647.285	-8.77
647.319	-5.77
647.353	1.23
647.386	5.23
647.42	-2.77
647.453	3.23
647.487	-5.77
647.52	8.23
647.553	16.23
647.587	-7.77
647.62	1.23
647.654	-4.77
647.687	4.23
647.721	4.23
647.754	15.23
647.788	14.23
647.821	-1.77
647.855	9.23
647.888	19.23
647.922	14.23
647.955	19.23
647.989	5.23
648.022	0.23
648.055	7.23
648.089	-0.77
648.122	14.23
648.156	12.23
648.189	14.23
648.223	10.23
648.256	5.23
648.29	6.23
648.323	-5.77
648.356	0.23
648.39	22.23
648.423	-2.77
648.457	-4.77
648.49	0.23
648.523	18.23
648.557	3.23
648.59	-1.77
648.624	-3.77
648.657	4.23
648.69	12.23
648.724	-5.77
648.757	28.23
648.791	6.23
648.824	-7.77
648.857	13.23
648.891	8.23
648.924	1.23
648.957	4.23
648.991	-3.77
649.024	8.23
649.057	-13.77
649.091	1.23
649.124	9.23
649.158	6.23
649.191	6.23
649.224	9.23
649.258	-4.77
649.291	-18.77
649.324	-3.77
649.358	-2.77
649.391	11.23
649.424	13.23
649.458	11.23
649.491	-6.77
649.524	-7.77
649.557	-2.77
649.591	-22.77
649.624	7.23
649.657	-21.77
649.691	-5.77
649.724	9.23
649.757	-1.77
649.791	2.23
649.824	29.23
649.857	6.23
649.89	4.23
649.924	-8.77
649.957	-6.77
649.99	-25.77
650.023	5.23
650.057	-0.77
650.09	-0.77
650.123	-1.77
650.157	7.23
650.19	1.23
650.223	-6.77
650.256	-20.77
650.29	-1.77
650.323	-1.77
650.356	-3.77
650.389	-2.77
650.423	-18.77
650.456	5.23
650.489	2.23
650.522	9.23
650.555	17.23
650.589	6.23
650.622	0.23
650.655	14.23
650.688	-13.77
650.721	8.23
650.755	-5.77
650.788	17.23
650.821	4.23
650.854	-0.77
650.887	10.23
650.921	2.23
650.954	11.23
650.987	-4.77
651.02	-2.77
651.053	-19.77
651.087	-1.77
651.12	15.23
651.153	2.23
651.186	3.23
651.219	-1.77
651.252	22.23
651.286	10.23
651.319	12.23
651.352	10.23
651.385	4.23
651.418	-12.77
651.451	1.23
651.484	5.23
651.518	1.23
651.551	7.23
651.584	-12.77
651.617	1.23
651.65	-10.77
651.683	10.23
651.716	13.23
651.749	-8.77
651.783	-2.77
651.816	12.23
651.849	-6.77
651.882	-1.77
651.915	-16.77
651.948	7.23
651.981	-0.77
652.014	-8.77
652.047	-5.77
652.08	-18.77
652.114	4.23
652.147	-1.77
652.18	3.23
652.213	12.23
652.246	14.23
652.279	10.23
652.312	14.23
652.345	0.23
652.378	8.23
652.411	3.23
652.444	-2.77
652.477	0.23
652.51	-5.77
652.543	-17.77
652.576	4.23
652.609	-3.77
652.642	21.23
652.675	2.23
652.709	-4.77
652.742	4.23
652.775	-13.77
652.808	-1.77
652.841	1.23
652.874	17.23
652.907	-5.77
652.94	-3.77
652.973	-9.77
653.006	-2.77
653.039	4.23
653.072	-16.77
653.105	4.23
653.138	-18.77
653.171	-2.77
653.204	-1.77
653.237	-5.77
653.27	-11.77
653.303	7.23
653.336	-1.77
653.368	1.23
653.401	5.23
653.434	-4.77
653.467	2.23
653.5	-8.77
653.533	-7.77
653.566	-7.77
653.599	9.23
653.632	-9.77
653.665	6.23
653.698	4.23
653.731	-3.77
653.764	4.23
653.797	14.23
653.83	22.23
653.863	7.23
653.896	4.23
653.929	2.23
653.961	2.23
653.994	4.23
654.027	-15.77
654.06	6.23
654.093	5.23
654.126	3.23
654.159	-21.77
654.192	6.23
654.225	2.23
654.258	-6.77
654.29	-0.77
654.323	6.23
654.356	1.23
654.389	-4.77
654.422	2.23
654.455	13.23
654.488	4.23
654.521	-5.77
654.553	5.23
654.586	1.23
654.619	-1.77
654.652	0.23
654.685	-5.77
654.718	2.23
654.751	9.23
654.783	-14.77
654.816	21.23
654.849	6.23
654.882	-9.77
654.915	-0.77
654.948	19.23
654.98	0.23
655.013	-0.77
655.046	-0.77
655.079	-3.77
655.112	-2.77
655.144	-11.77
655.177	10.23
655.21	3.23
655.243	15.23
655.276	-4.77
655.308	-10.77
655.341	-9.77
655.374	3.23
655.407	4.23
655.44	9.23
655.472	18.23
655.505	14.23
655.538	4.23
655.571	6.23
655.603	1.23
655.636	17.23
655.669	12.23
655.702	7.23
655.734	4.23
655.767	6.23
655.8	18.23
655.833	20.23
655.865	32.23
655.898	11.23
655.931	15.23
655.964	22.23
655.996	21.23
656.029	50.23
656.062	40.23
656.095	52.23
656.127	96.23
656.16	208.23
656.193	626.23
656.225	984.23
656.258	563.23
656.291	192.23
656.324	173.23
656.356	346.23
656.389	774.23
656.422	681.23
656.454	215.23
656.487	72.23
656.52	34.23
656.552	27.23
656.585	13.23
656.618	21.23
656.65	18.23
656.683	-6.77
656.716	13.23
656.748	14.23
656.781	4.23
656.814	-1.77
656.846	23.23
656.879	6.23
656.912	10.23
656.944	-25.77
656.977	10.23
657.01	8.23
657.042	4.23
657.075	1.23
657.108	-3.77
657.14	23.23
657.173	25.23
657.205	26.23
657.238	9.23
657.271	9.23
657.303	-2.77
657.336	-7.77
657.369	-0.77
657.401	-3.77
657.434	5.23
657.466	11.23
657.499	13.23
657.532	-0.77
657.564	-0.77
657.597	8.23
657.629	8.23
657.662	11.23
657.694	11.23
657.727	-2.77
657.76	-0.77
657.792	-15.77
657.825	-15.77
657.857	1.23
657.89	0.23
657.922	25.23
657.955	-0.77
657.987	-6.77
658.02	20.23
658.053	27.23
658.085	11.23
658.118	-1.77
658.15	6.23
658.183	11.23
658.215	3.23
658.248	4.23
658.28	-5.77
658.313	17.23
658.345	-2.77
658.378	-7.77
658.41	0.23
658.443	17.23
658.475	-7.77
658.508	0.23
658.54	-18.77
658.573	-17.77
658.605	2.23
658.638	-3.77
658.67	5.23
658.703	-1.77
658.735	-11.77
658.768	3.23
658.8	-8.77
658.833	15.23
658.865	4.23
658.898	-7.77
658.93	-15.77
658.963	4.23
658.995	-10.77
659.028	10.23
659.06	5.23
659.092	-5.77
659.125	2.23
659.157	16.23
659.19	4.23
659.222	6.23
659.255	-5.77
659.287	-3.77
659.32	-2.77
659.352	9.23
659.384	10.23
659.417	-5.77
659.449	10.23
659.482	27.23
659.514	-2.77
659.546	-5.77
659.579	2.23
659.611	0.23
659.644	2.23
659.676	12.23
659.708	5.23
659.741	10.23
659.773	1.23
659.806	5.23
659.838	-7.77
659.87	-8.77
659.903	9.23
659.935	15.23
659.967	10.23
660	9.23
660.032	-19.77
660.065	21.23
660.097	6.23
660.129	3.23
660.162	-11.77
660.194	3.23
660.226	14.23
660.259	11.23
660.291	-0.77
660.323	1.23
660.356	2.23
660.388	-3.77
660.42	-7.77
660.453	12.23
660.485	2.23
660.517	14.23
660.55	23.23
660.582	-2.77
660.614	17.23
660.647	-1.77
660.679	-3.77
660.711	11.23
660.743	-5.77
660.776	-21.77
660.808	8.23
660.84	-15.77
660.873	-10.77
660.905	-3.77
660.937	-9.77
660.969	-6.77
661.002	-6.77
661.034	6.23
661.066	22.23
661.099	-0.77
661.131	13.23
661.163	-3.77
661.195	5.23
661.228	1.23
661.26	-1.77
661.292	7.23
661.324	-0.77
661.357	10.23
661.389	1.23
661.421	2.23
661.453	14.23
661.485	5.23
661.518	-7.77
661.55	-4.77
661.582	1.23
661.614	-5.77
661.647	2.23
661.679	-1.77
661.711	6.23
661.743	-6.77
661.775	5.23
661.808	16.23
661.84	-15.77
661.872	-23.77
661.904	-5.77
661.936	6.23
661.969	-16.77
662.001	-7.77
662.033	3.23
662.065	-7.77
662.097	-6.77
662.129	-2.77
662.162	-15.77
662.194	-3.77
662.226	-3.77
662.258	11.23
662.29	-1.77
662.322	-12.77
662.355	-7.77
662.387	16.23
662.419	14.23
662.451	20.23
662.483	2.23
662.515	8.23
662.547	-20.77
662.58	-7.77
662.612	-0.77
662.644	-20.77
662.676	13.23
662.708	6.23
662.74	1.23
662.772	7.23
662.804	9.23
662.836	4.23
662.869	-0.77
662.901	19.23
662.933	5.23
662.965	9.23
662.997	10.23
663.029	5.23
663.061	8.23
663.093	1.23
663.125	-0.77
663.157	-1.77
663.189	-4.77
663.221	8.23
663.254	-5.77
663.286	6.23
663.318	-4.77
663.35	-1.77
663.382	-2.77
663.414	12.23
663.446	4.23
663.478	-1.77
663.51	11.23
663.542	5.23
663.574	6.23
663.606	12.23
663.638	-2.77
663.67	0.23
663.702	-17.77
663.734	-1.77
663.766	5.23
663.798	-21.77
663.83	-8.77
663.862	10.23
663.894	8.23
663.926	-18.77
663.958	7.23
663.99	-14.77
664.022	-0.77
664.054	17.23
664.086	-10.77
664.118	-28.77
664.15	-19.77
664.182	1.23
664.214	8.23
664.246	10.23
664.278	9.23
664.31	12.23
664.342	-5.77
664.374	-2.77
664.406	-6.77
664.438	-11.77
664.47	6.23
664.502	-7.77
664.534	-9.77
664.566	-1.77
664.598	10.23
664.63	-4.77
664.662	-1.77
664.693	-19.77
664.725	-15.77
664.757	13.23
664.789	-4.77
664.821	14.23
664.853	6.23
664.885	6.23
664.917	-5.77
664.949	28.23
664.981	9.23
665.013	-13.77
665.045	0.23
665.076	6.23
665.108	0.23
665.14	-9.77
665.172	11.23
665.204	-10.77
665.236	7.23
665.268	12.23
665.3	0.23
665.331	3.23
665.363	-5.77
665.395	7.23
665.427	1.23
665.459	1.23
665.491	-10.77
665.523	1.23
665.555	0.23
665.586	8.23
665.618	-7.77
665.65	-9.77
665.682	0.23
665.714	13.23
665.746	3.23
665.777	13.23
665.809	13.23
665.841	18.23
665.873	1.23
665.905	14.23
665.937	19.23
665.968	-1.77
666	10.23
666.032	-3.77
666.064	6.23
666.096	-12.77
666.127	8.23
666.159	17.23
666.191	13.23
666.223	13.23
666.255	11.23
666.286	17.23
666.318	7.23
666.35	3.23
666.382	0.23
666.413	-0.77
666.445	-15.77
666.477	-17.77
666.509	-12.77
666.54	2.23
666.572	5.23
666.604	-9.77
666.636	-4.77
666.667	15.23
666.699	18.23
666.731	3.23
666.763	5.23
666.794	5.23
666.826	-0.77
666.858	-16.77
666.89	1.23
666.921	-0.77
666.953	-1.77
666.985	-7.77
667.017	5.23
667.048	0.23
667.08	15.23
667.112	-13.77
667.143	-6.77
667.175	-2.77
667.207	17.23
667.238	5.23
667.27	-16.77
667.302	-0.77
667.334	-16.77
667.365	23.23
667.397	-2.77
667.429	-12.77
667.46	0.23
667.492	5.23
667.524	-9.77
667.555	-7.77
667.587	-5.77
667.619	9.23
667.65	-21.77
667.682	10.23
667.714	5.23
667.745	9.23
667.777	11.23
667.808	11.23
667.84	12.23
667.872	-12.77
667.903	19.23
667.935	10.23
667.967	6.23
667.998	11.23
668.03	-1.77
668.061	14.23
668.093	0.23
668.125	13.23
668.156	4.23
668.188	-14.77
668.22	-4.77
668.251	6.23
668.283	9.23
668.314	6.23
668.346	-3.77
668.377	-0.77
668.409	7.23
668.441	7.23
668.472	-3.77
668.504	7.23
668.535	0.23
668.567	9.23
668.599	15.23
668.63	-2.77
668.662	7.23
668.693	7.23
668.725	-16.77
668.756	3.23
668.788	-8.77
668.819	11.23
668.851	2.23
668.882	-0.77
668.914	-3.77
668.946	-3.77
668.977	6.23
669.009	-3.77
669.04	-29.77
669.072	8.23
669.103	17.23
669.135	8.23
669.166	5.23
669.198	5.23
669.229	13.23
669.261	6.23
669.292	-5.77
669.324	-13.77
669.355	5.23
669.387	-3.77
669.418	4.23
669.45	0.23
669.481	6.23
669.513	-6.77
669.544	-4.77
669.576	8.23
669.607	16.23
669.639	16.23
669.67	-4.77
669.701	7.23
669.733	-16.77
669.764	-6.77
669.796	7.23
669.827	-2.77
669.859	-10.77
669.89	-0.77
669.922	8.23
669.953	8.23
669.985	-0.77
670.016	15.23
670.047	16.23
670.079	5.23
670.11	0.23
670.142	-7.77
670.173	3.23
670.204	-0.77
670.236	0.23
670.267	-6.77
670.299	10.23
670.33	3.23
670.362	-8.77
670.393	-16.77
670.424	5.23
670.456	-1.77
670.487	-6.77
670.518	7.23
670.55	17.23
670.581	1.23
670.613	3.23
670.644	1.23
670.675	-9.77
670.707	-0.77
670.738	11.23
670.769	1.23
670.801	-23.77
670.832	1.23
670.864	-5.77
670.895	8.23
670.926	-3.77
670.958	1.23
670.989	-4.77
671.02	-9.77
671.052	7.23
671.083	-2.77
671.114	0.23
671.146	23.23
671.177	6.23
671.208	-17.77
671.24	-5.77
671.271	-20.77
671.302	-2.77
671.333	-3.77
671.365	-15.77
671.396	2.23
671.427	10.23
671.459	16.23
671.49	5.23
671.521	6.23
671.553	5.23
671.584	-3.77
671.615	-4.77
671.646	-1.77
671.678	-0.77
671.709	-1.77
671.74	-1.77
671.771	-20.77
671.803	-11.77
671.834	13.23
671.865	-2.77
671.896	10.23
671.928	10.23
671.959	9.23
671.99	1.23
672.021	1.23
672.053	-1.77
672.084	6.23
672.115	11.23
672.146	-0.77
672.178	-2.77
672.209	4.23
672.24	-2.77
672.271	6.23
672.303	-2.77
672.334	0.23
672.365	-21.77
672.396	4.23
672.427	5.23
672.459	16.23
672.49	21.23
672.521	8.23
672.552	8.23
672.583	4.23
672.615	-6.77
672.646	17.23
672.677	1.23
672.708	3.23
672.739	9.23
672.77	25.23
672.802	21.23
672.833	8.23
672.864	7.23
672.895	5.23
672.926	-2.77
672.957	-12.77
672.989	-6.77
673.02	9.23
673.051	-1.77
673.082	8.23
673.113	5.23
673.144	21.23
673.175	6.23
673.206	-4.77
673.238	1.23
673.269	11.23
673.3	-24.77
673.331	6.23
673.362	10.23
673.393	3.23
673.424	6.23
673.455	14.23
673.487	4.23
673.518	16.23
673.549	-7.77
673.58	-6.77
673.611	-2.77
673.642	-2.77
673.673	-20.77
673.704	-6.77
673.735	-7.77
673.766	-10.77
673.797	1.23
673.828	4.23
673.86	2.23
673.891	8.23
673.922	-2.77
673.953	-3.77
673.984	7.23
674.015	13.23
674.046	2.23
674.077	8.23
674.108	-6.77
674.139	1.23
674.17	-2.77
674.201	6.23
674.232	-10.77
674.263	-14.77
674.294	-3.77
674.325	-8.77
674.356	6.23
674.387	8.23
674.418	14.23
674.449	1.23
674.48	2.23
674.511	2.23
674.542	23.23
674.573	-3.77
674.604	14.23
674.635	-8.77
674.666	16.23
674.697	4.23
674.728	11.23
674.759	16.23
674.79	-9.77
674.821	-5.77
674.852	2.23
674.883	-5.77
674.914	-8.77
674.945	4.23
674.976	-9.77
675.007	-16.77
675.038	-20.77
675.069	-1.77
675.1	17.23
675.131	6.23
675.162	-1.77
675.193	-0.77
675.224	-17.77
675.254	9.23
675.285	21.23
675.316	23.23
675.347	15.23
675.378	-0.77
675.409	-4.77
675.44	25.23
675.471	-8.77
675.502	-15.77
675.533	5.23
675.564	9.23
675.595	6.23
675.625	18.23
675.656	7.23
675.687	3.23
675.718	-14.77
675.749	21.23
675.78	5.23
675.811	12.23
675.842	12.23
675.873	-18.77
675.903	-13.77
675.934	5.23
675.965	-2.77
675.996	-12.77
676.027	2.23
676.058	2.23
676.089	-21.77
676.119	-7.77
676.15	5.23
676.181	-12.77
676.212	-0.77
676.243	24.23
676.274	-8.77
676.304	12.23
676.335	-2.77
676.366	-0.77
676.397	2.23
676.428	3.23
676.459	-7.77
676.489	7.23
676.52	16.23
676.551	8.23
676.582	3.23
676.613	2.23
676.643	0.23
676.674	5.23
676.705	7.23
676.736	9.23
676.767	17.23
676.797	3.23
676.828	-3.77
676.859	-11.77
676.89	0.23
676.92	10.23
676.951	1.23
676.982	11.23
677.013	6.23
677.044	22.23
677.074	5.23
677.105	-7.77
677.136	4.23
677.167	6.23
677.197	11.23
677.228	3.23
677.259	0.23
677.289	-7.77
677.32	-19.77
677.351	-10.77
677.382	0.23
677.412	-7.77
677.443	16.23
677.474	10.23
677.505	-0.77
677.535	6.23
677.566	-10.77
677.597	-4.77
677.627	-17.77
677.658	7.23
677.689	-3.77
677.72	-2.77
677.75	-0.77
677.781	0.23
677.812	11.23
677.842	9.23
677.873	4.23
677.904	-2.77
677.934	-4.77
677.965	-7.77
677.996	-17.77
678.026	-0.77
678.057	3.23
678.088	-9.77
678.118	1.23
678.149	7.23
678.18	12.23
678.21	6.23
678.241	-1.77
678.272	-10.77
678.302	0.23
678.333	8.23
678.363	15.23
678.394	4.23
678.425	-3.77
678.455	9.23
678.486	10.23
678.517	6.23
678.547	3.23
678.578	9.23
678.608	-6.77
678.639	5.23
678.67	8.23
678.7	-3.77
678.731	-2.77
678.761	8.23
678.792	5.23
678.823	5.23
678.853	1.23
678.884	-10.77
678.914	-5.77
678.945	2.23
678.975	-16.77
679.006	21.23
679.037	19.23
679.067	1.23
679.098	1.23
679.128	-4.77
679.159	1.23
679.189	10.23
679.22	-1.77
679.25	10.23
679.281	2.23
679.312	7.23
679.342	6.23
679.373	15.23
679.403	-9.77
679.434	8.23
679.464	-3.77
679.495	-6.77
679.525	2.23
679.556	-14.77
679.586	7.23
679.617	14.23
679.647	11.23
679.678	8.23
679.708	-0.77
679.739	8.23
679.769	0.23
679.8	-10.77
679.83	7.23
679.861	10.23
679.891	-6.77
679.922	-19.77
679.952	-1.77
679.983	-7.77
680.013	6.23
680.044	-0.77
680.074	5.23
680.105	19.23
680.135	7.23
680.165	6.23
680.196	22.23
680.226	7.23
680.257	15.23
680.287	4.23
680.318	-10.77
680.348	-17.77
680.379	14.23
680.409	19.23
680.439	11.23
680.47	9.23
680.5	-11.77
680.531	6.23
680.561	13.23
680.592	13.23
680.622	21.23
680.652	-2.77
680.683	2.23
680.713	-1.77
680.744	-2.77
680.774	-5.77
680.804	8.23
680.835	-21.77
680.865	-23.77
680.896	12.23
680.926	21.23
680.956	-8.77
680.987	4.23
681.017	2.23
681.047	7.23
681.078	-9.77
681.108	-6.77
681.139	2.23
681.169	-2.77
681.199	1.23
681.23	2.23
681.26	6.23
681.29	8.23
681.321	2.23
681.351	8.23
681.381	-5.77
681.412	7.23
681.442	6.23
681.472	12.23
681.503	10.23
681.533	-8.77
681.563	2.23
681.594	-0.77
681.624	16.23
681.654	0.23
681.685	2.23
681.715	12.23
681.745	4.23
681.775	13.23
681.806	13.23
681.836	12.23
681.866	-3.77
681.897	10.23
681.927	4.23
681.957	-20.77
681.987	-10.77
682.018	-9.77
682.048	-2.77
682.078	-0.77
682.109	18.23
682.139	8.23
682.169	-3.77
682.199	-8.77
682.23	-9.77
682.26	10.23
682.29	-7.77
682.32	-6.77
682.351	-9.77
682.381	3.23
682.411	-0.77
682.441	-15.77
682.472	-0.77
682.502	-8.77
682.532	-6.77
682.562	15.23
682.592	17.23
