Data from HighRes_H2D2_15_04_11_07_2024_HR4C61891__57__15-05-40-143.txt Node

Date: Thu Nov 07 15:05:40 EST 2024
User: crc00042
Spectrometer: HR4C6189
Trigger mode: 4
Integration Time (sec): 1.000000E-1
Scans to average: 1
Electric dark correction enabled: true
Nonlinearity correction enabled: false
Boxcar width: 0
XAxis mode: Wavelengths
Number of Pixels in Spectrum: 3648
>>>>>Begin Spectral Data<<<<<
639.567	-26.92
639.602	-26.92
639.636	-26.92
639.67	-42.92
639.704	-14.92
639.738	7.08
639.773	13.08
639.807	-19.92
639.841	-2.92
639.875	21.08
639.909	5.08
639.943	-9.92
639.978	-11.92
640.012	-5.92
640.046	20.08
640.08	-14.92
640.114	-5.92
640.148	5.08
640.182	-10.92
640.217	-6.92
640.251	10.08
640.285	0.08
640.319	-18.92
640.353	-3.92
640.387	-5.92
640.421	1.08
640.455	-9.92
640.49	2.08
640.524	0.08
640.558	7.08
640.592	10.08
640.626	-0.92
640.66	1.08
640.694	7.08
640.728	4.08
640.762	-11.92
640.796	16.08
640.83	17.08
640.865	-16.92
640.899	-15.92
640.933	0.08
640.967	14.08
641.001	8.08
641.035	2.08
641.069	-2.92
641.103	-6.92
641.137	-10.92
641.171	-6.92
641.205	2.08
641.239	-2.92
641.273	17.08
641.307	7.08
641.341	-1.92
641.375	0.08
641.409	-7.92
641.443	1.08
641.477	6.08
641.511	0.08
641.545	10.08
641.579	8.08
641.614	-8.92
641.648	10.08
641.682	-10.92
641.716	6.08
641.75	29.08
641.784	7.08
641.818	-8.92
641.852	-8.92
641.886	-10.92
641.919	21.08
641.953	-3.92
641.987	-26.92
642.021	-7.92
642.055	-5.92
642.089	5.08
642.123	-18.92
642.157	-26.92
642.191	-1.92
642.225	9.08
642.259	5.08
642.293	11.08
642.327	-7.92
642.361	5.08
642.395	21.08
642.429	21.08
642.463	9.08
642.497	6.08
642.531	5.08
642.565	-2.92
642.599	8.08
642.633	-8.92
642.666	-11.92
642.7	22.08
642.734	18.08
642.768	-11.92
642.802	7.08
642.836	-7.92
642.87	0.08
642.904	5.08
642.938	16.08
642.972	7.08
643.005	22.08
643.039	9.08
643.073	-2.92
643.107	9.08
643.141	-15.92
643.175	7.08
643.209	-10.92
643.243	-1.92
643.276	13.08
643.31	4.08
643.344	-16.92
643.378	-5.92
643.412	5.08
643.446	6.08
643.48	-8.92
643.513	-3.92
643.547	-2.92
643.581	2.08
643.615	13.08
643.649	4.08
643.683	-2.92
643.716	-1.92
643.75	-4.92
643.784	-11.92
643.818	-5.92
643.852	-17.92
643.886	-19.92
643.919	-10.92
643.953	-2.92
643.987	-8.92
644.021	0.08
644.055	12.08
644.088	9.08
644.122	-2.92
644.156	-4.92
644.19	-7.92
644.224	-5.92
644.257	9.08
644.291	11.08
644.325	1.08
644.359	-6.92
644.392	6.08
644.426	11.08
644.46	0.08
644.494	-5.92
644.527	-17.92
644.561	14.08
644.595	-6.92
644.629	-0.92
644.662	7.08
644.696	16.08
644.73	-9.92
644.764	-4.92
644.797	-1.92
644.831	-7.92
644.865	2.08
644.899	8.08
644.932	11.08
644.966	-2.92
645	8.08
645.033	8.08
645.067	10.08
645.101	11.08
645.135	-0.92
645.168	13.08
645.202	-0.92
645.236	9.08
645.269	12.08
645.303	-11.92
645.337	-11.92
645.37	2.08
645.404	9.08
645.438	-10.92
645.471	-15.92
645.505	1.08
645.539	13.08
645.572	-15.92
645.606	-12.92
645.64	5.08
645.673	10.08
645.707	19.08
645.741	10.08
645.774	-8.92
645.808	9.08
645.842	-16.92
645.875	-1.92
645.909	-9.92
645.943	0.08
645.976	-0.92
646.01	7.08
646.043	4.08
646.077	15.08
646.111	5.08
646.144	8.08
646.178	23.08
646.212	-11.92
646.245	-3.92
646.279	-4.92
646.312	-0.92
646.346	18.08
646.38	6.08
646.413	2.08
646.447	10.08
646.48	3.08
646.514	1.08
646.547	-9.92
646.581	-6.92
646.615	-1.92
646.648	13.08
646.682	4.08
646.715	1.08
646.749	10.08
646.782	-0.92
646.816	-4.92
646.85	2.08
646.883	-0.92
646.917	10.08
646.95	5.08
646.984	4.08
647.017	-15.92
647.051	9.08
647.084	-2.92
647.118	-5.92
647.151	-4.92
647.185	-0.92
647.218	-6.92
647.252	12.08
647.285	-9.92
647.319	-20.92
647.353	-4.92
647.386	18.08
647.42	8.08
647.453	-2.92
647.487	10.08
647.52	6.08
647.553	2.08
647.587	10.08
647.62	-7.92
647.654	4.08
647.687	-5.92
647.721	4.08
647.754	10.08
647.788	-6.92
647.821	-17.92
647.855	3.08
647.888	7.08
647.922	-4.92
647.955	14.08
647.989	15.08
648.022	12.08
648.055	12.08
648.089	5.08
648.122	29.08
648.156	6.08
648.189	6.08
648.223	-9.92
648.256	4.08
648.29	-1.92
648.323	-7.92
648.356	12.08
648.39	13.08
648.423	6.08
648.457	-5.92
648.49	17.08
648.523	26.08
648.557	10.08
648.59	6.08
648.624	-1.92
648.657	11.08
648.69	21.08
648.724	15.08
648.757	26.08
648.791	18.08
648.824	19.08
648.857	12.08
648.891	9.08
648.924	1.08
648.957	24.08
648.991	-0.92
649.024	14.08
649.057	-13.92
649.091	8.08
649.124	10.08
649.158	20.08
649.191	22.08
649.224	12.08
649.258	15.08
649.291	14.08
649.324	11.08
649.358	-0.92
649.391	7.08
649.424	0.08
649.458	1.08
649.491	-1.92
649.524	-6.92
649.557	6.08
649.591	-14.92
649.624	7.08
649.657	2.08
649.691	4.08
649.724	1.08
649.757	-6.92
649.791	-2.92
649.824	11.08
649.857	14.08
649.89	17.08
649.924	-16.92
649.957	-5.92
649.99	1.08
650.023	-0.92
650.057	-1.92
650.09	-3.92
650.123	-2.92
650.157	6.08
650.19	6.08
650.223	-1.92
650.256	-4.92
650.29	6.08
650.323	-3.92
650.356	-4.92
650.389	2.08
650.423	-1.92
650.456	19.08
650.489	-0.92
650.522	9.08
650.555	15.08
650.589	-7.92
650.622	-0.92
650.655	5.08
650.688	3.08
650.721	-1.92
650.755	1.08
650.788	16.08
650.821	8.08
650.854	11.08
650.887	9.08
650.921	-13.92
650.954	-7.92
650.987	7.08
651.02	-9.92
651.053	-24.92
651.087	-9.92
651.12	10.08
651.153	7.08
651.186	-1.92
651.219	-7.92
651.252	16.08
651.286	-1.92
651.319	-2.92
651.352	2.08
651.385	0.08
651.418	3.08
651.451	-1.92
651.484	0.08
651.518	5.08
651.551	11.08
651.584	-6.92
651.617	26.08
651.65	11.08
651.683	26.08
651.716	3.08
651.749	1.08
651.783	8.08
651.816	-5.92
651.849	7.08
651.882	6.08
651.915	-1.92
651.948	1.08
651.981	-2.92
652.014	-8.92
652.047	-7.92
652.08	1.08
652.114	-5.92
652.147	-4.92
652.18	-1.92
652.213	18.08
652.246	4.08
652.279	-9.92
652.312	5.08
652.345	1.08
652.378	16.08
652.411	21.08
652.444	16.08
652.477	0.08
652.51	-16.92
652.543	-27.92
652.576	-1.92
652.609	5.08
652.642	0.08
652.675	21.08
652.709	-1.92
652.742	9.08
652.775	-3.92
652.808	-1.92
652.841	-6.92
652.874	-0.92
652.907	21.08
652.94	-10.92
652.973	-24.92
653.006	-7.92
653.039	3.08
653.072	-2.92
653.105	-4.92
653.138	-13.92
653.171	-12.92
653.204	-22.92
653.237	-0.92
653.27	-23.92
653.303	-11.92
653.336	14.08
653.368	14.08
653.401	6.08
653.434	-6.92
653.467	7.08
653.5	3.08
653.533	-10.92
653.566	15.08
653.599	3.08
653.632	6.08
653.665	25.08
653.698	-8.92
653.731	6.08
653.764	2.08
653.797	-1.92
653.83	-9.92
653.863	5.08
653.896	-2.92
653.929	-1.92
653.961	0.08
653.994	7.08
654.027	-8.92
654.06	-6.92
654.093	4.08
654.126	-8.92
654.159	-7.92
654.192	7.08
654.225	6.08
654.258	-1.92
654.29	17.08
654.323	-0.92
654.356	3.08
654.389	9.08
654.422	11.08
654.455	-8.92
654.488	-8.92
654.521	-6.92
654.553	-5.92
654.586	26.08
654.619	8.08
654.652	7.08
654.685	7.08
654.718	8.08
654.751	12.08
654.783	-4.92
654.816	9.08
654.849	6.08
654.882	-12.92
654.915	-18.92
654.948	-8.92
654.98	-3.92
655.013	-9.92
655.046	-4.92
655.079	-13.92
655.112	1.08
655.144	11.08
655.177	-1.92
655.21	14.08
655.243	7.08
655.276	-2.92
655.308	-4.92
655.341	-5.92
655.374	10.08
655.407	-6.92
655.44	3.08
655.472	5.08
655.505	-1.92
655.538	-18.92
655.571	12.08
655.603	1.08
655.636	-19.92
655.669	18.08
655.702	12.08
655.734	-5.92
655.767	8.08
655.8	12.08
655.833	9.08
655.865	7.08
655.898	10.08
655.931	1.08
655.964	21.08
655.996	12.08
656.029	26.08
656.062	28.08
656.095	41.08
656.127	73.08
656.16	212.08
656.193	630.08
656.225	983.08
656.258	557.08
656.291	211.08
656.324	177.08
656.356	354.08
656.389	763.08
656.422	670.08
656.454	238.08
656.487	76.08
656.52	34.08
656.552	13.08
656.585	12.08
656.618	19.08
656.65	20.08
656.683	12.08
656.716	9.08
656.748	6.08
656.781	14.08
656.814	-4.92
656.846	12.08
656.879	6.08
656.912	8.08
656.944	-23.92
656.977	-11.92
657.01	-0.92
657.042	7.08
657.075	15.08
657.108	-19.92
657.14	-0.92
657.173	-3.92
657.205	31.08
657.238	13.08
657.271	-12.92
657.303	-14.92
657.336	6.08
657.369	8.08
657.401	-2.92
657.434	-4.92
657.466	11.08
657.499	4.08
657.532	-2.92
657.564	0.08
657.597	-5.92
657.629	-3.92
657.662	2.08
657.694	6.08
657.727	-5.92
657.76	6.08
657.792	-2.92
657.825	-16.92
657.857	1.08
657.89	-0.92
657.922	15.08
657.955	-3.92
657.987	10.08
658.02	9.08
658.053	9.08
658.085	7.08
658.118	9.08
658.15	1.08
658.183	11.08
658.215	-0.92
658.248	-7.92
658.28	-17.92
658.313	0.08
658.345	25.08
658.378	2.08
658.41	-6.92
658.443	7.08
658.475	-6.92
658.508	-1.92
658.54	0.08
658.573	-18.92
658.605	7.08
658.638	-5.92
658.67	-9.92
658.703	9.08
658.735	-9.92
658.768	0.08
658.8	-8.92
658.833	30.08
658.865	16.08
658.898	4.08
658.93	10.08
658.963	7.08
658.995	-12.92
659.028	0.08
659.06	3.08
659.092	4.08
659.125	12.08
659.157	6.08
659.19	-5.92
659.222	4.08
659.255	-8.92
659.287	4.08
659.32	-1.92
659.352	10.08
659.384	8.08
659.417	-3.92
659.449	7.08
659.482	5.08
659.514	-21.92
659.546	-4.92
659.579	-25.92
659.611	-5.92
659.644	3.08
659.676	-16.92
659.708	-17.92
659.741	-17.92
659.773	22.08
659.806	-6.92
659.838	8.08
659.87	13.08
659.903	-17.92
659.935	6.08
659.967	-2.92
660	6.08
660.032	-26.92
660.065	10.08
660.097	4.08
660.129	10.08
660.162	-14.92
660.194	7.08
660.226	3.08
660.259	-2.92
660.291	-11.92
660.323	-0.92
660.356	3.08
660.388	5.08
660.42	16.08
660.453	10.08
660.485	8.08
660.517	5.08
660.55	6.08
660.582	1.08
660.614	12.08
660.647	-1.92
660.679	-10.92
660.711	12.08
660.743	-12.92
660.776	-5.92
660.808	-13.92
660.84	-15.92
660.873	5.08
660.905	-14.92
660.937	-7.92
660.969	-3.92
661.002	1.08
661.034	19.08
661.066	-7.92
661.099	3.08
661.131	15.08
661.163	12.08
661.195	4.08
661.228	3.08
661.26	0.08
661.292	-1.92
661.324	-3.92
661.357	4.08
661.389	9.08
661.421	-0.92
661.453	8.08
661.485	-1.92
661.518	4.08
661.55	-11.92
661.582	-9.92
661.614	7.08
661.647	5.08
661.679	-6.92
661.711	17.08
661.743	-5.92
661.775	-3.92
661.808	11.08
661.84	-9.92
661.872	0.08
661.904	-2.92
661.936	9.08
661.969	-13.92
662.001	-18.92
662.033	-7.92
662.065	-11.92
662.097	11.08
662.129	2.08
662.162	-15.92
662.194	9.08
662.226	5.08
662.258	-0.92
662.29	-13.92
662.322	-1.92
662.355	-9.92
662.387	11.08
662.419	13.08
662.451	4.08
662.483	5.08
662.515	-5.92
662.547	-12.92
662.58	9.08
662.612	-9.92
662.644	-20.92
662.676	-4.92
662.708	5.08
662.74	-0.92
662.772	3.08
662.804	15.08
662.836	5.08
662.869	-11.92
662.901	-10.92
662.933	-7.92
662.965	20.08
662.997	-1.92
663.029	-17.92
663.061	15.08
663.093	-2.92
663.125	16.08
663.157	10.08
663.189	1.08
663.221	16.08
663.254	-6.92
663.286	9.08
663.318	4.08
663.35	-19.92
663.382	-5.92
663.414	9.08
663.446	-3.92
663.478	-7.92
663.51	13.08
663.542	-11.92
663.574	-27.92
663.606	-12.92
663.638	-12.92
663.67	8.08
663.702	-1.92
663.734	-5.92
663.766	-2.92
663.798	5.08
663.83	4.08
663.862	13.08
663.894	8.08
663.926	4.08
663.958	2.08
663.99	-3.92
664.022	-7.92
664.054	9.08
664.086	-22.92
664.118	-15.92
664.15	-9.92
664.182	4.08
664.214	9.08
664.246	4.08
664.278	-1.92
664.31	19.08
664.342	16.08
664.374	10.08
664.406	-5.92
664.438	5.08
664.47	6.08
664.502	-10.92
664.534	0.08
664.566	-21.92
664.598	6.08
664.63	-1.92
664.662	7.08
664.693	3.08
664.725	-6.92
664.757	-12.92
664.789	-8.92
664.821	9.08
664.853	20.08
664.885	20.08
664.917	-7.92
664.949	7.08
664.981	-2.92
665.013	-5.92
665.045	-9.92
665.076	-1.92
665.108	8.08
665.14	-0.92
665.172	-1.92
665.204	-4.92
665.236	-3.92
665.268	16.08
665.3	12.08
665.331	-6.92
665.363	5.08
665.395	-5.92
665.427	-3.92
665.459	-1.92
665.491	-5.92
665.523	-2.92
665.555	-18.92
665.586	8.08
665.618	-0.92
665.65	-6.92
665.682	15.08
665.714	0.08
665.746	-8.92
665.777	-8.92
665.809	-6.92
665.841	4.08
665.873	5.08
665.905	9.08
665.937	17.08
665.968	4.08
666	-2.92
666.032	1.08
666.064	-3.92
666.096	1.08
666.127	5.08
666.159	22.08
666.191	13.08
666.223	13.08
666.255	14.08
666.286	-8.92
666.318	-4.92
666.35	2.08
666.382	8.08
666.413	6.08
666.445	0.08
666.477	-16.92
666.509	-6.92
666.54	-1.92
666.572	5.08
666.604	12.08
666.636	3.08
666.667	20.08
666.699	18.08
666.731	-4.92
666.763	5.08
666.794	-0.92
666.826	6.08
666.858	2.08
666.89	19.08
666.921	15.08
666.953	9.08
666.985	-2.92
667.017	13.08
667.048	-0.92
667.08	-9.92
667.112	-10.92
667.143	-27.92
667.175	12.08
667.207	-4.92
667.238	-4.92
667.27	0.08
667.302	12.08
667.334	-4.92
667.365	13.08
667.397	-3.92
667.429	-13.92
667.46	23.08
667.492	10.08
667.524	2.08
667.555	8.08
667.587	5.08
667.619	-8.92
667.65	-6.92
667.682	-6.92
667.714	-0.92
667.745	-1.92
667.777	6.08
667.808	5.08
667.84	13.08
667.872	-2.92
667.903	24.08
667.935	10.08
667.967	-5.92
667.998	3.08
668.03	1.08
668.061	2.08
668.093	1.08
668.125	-8.92
668.156	-6.92
668.188	-9.92
668.22	-10.92
668.251	1.08
668.283	9.08
668.314	13.08
668.346	-8.92
668.377	-4.92
668.409	-0.92
668.441	16.08
668.472	12.08
668.504	17.08
668.535	4.08
668.567	16.08
668.599	5.08
668.63	11.08
668.662	2.08
668.693	12.08
668.725	-5.92
668.756	19.08
668.788	-9.92
668.819	13.08
668.851	18.08
668.882	12.08
668.914	18.08
668.946	-1.92
668.977	-1.92
669.009	13.08
669.04	-2.92
669.072	-10.92
669.103	-4.92
669.135	-1.92
669.166	4.08
669.198	-10.92
669.229	9.08
669.261	0.08
669.292	-8.92
669.324	4.08
669.355	0.08
669.387	-9.92
669.418	5.08
669.45	-8.92
669.481	7.08
669.513	8.08
669.544	-1.92
669.576	-6.92
669.607	10.08
669.639	4.08
669.67	-15.92
669.701	2.08
669.733	8.08
669.764	-4.92
669.796	-22.92
669.827	-7.92
669.859	7.08
669.89	10.08
669.922	4.08
669.953	-1.92
669.985	3.08
670.016	20.08
670.047	7.08
670.079	-4.92
670.11	2.08
670.142	5.08
670.173	8.08
670.204	3.08
670.236	1.08
670.267	-2.92
670.299	1.08
670.33	-3.92
670.362	19.08
670.393	-10.92
670.424	4.08
670.456	-3.92
670.487	1.08
670.518	3.08
670.55	8.08
670.581	4.08
670.613	2.08
670.644	-6.92
670.675	-14.92
670.707	7.08
670.738	-1.92
670.769	-13.92
670.801	-14.92
670.832	5.08
670.864	-20.92
670.895	10.08
670.926	1.08
670.958	-7.92
670.989	-9.92
671.02	1.08
671.052	-16.92
671.083	-8.92
671.114	-1.92
671.146	-7.92
671.177	-0.92
671.208	-9.92
671.24	-3.92
671.271	10.08
671.302	14.08
671.333	-8.92
671.365	5.08
671.396	13.08
671.427	7.08
671.459	14.08
671.49	4.08
671.521	7.08
671.553	0.08
671.584	17.08
671.615	-11.92
671.646	4.08
671.678	-5.92
671.709	-10.92
671.74	-14.92
671.771	6.08
671.803	-7.92
671.834	-5.92
671.865	-3.92
671.896	8.08
671.928	0.08
671.959	-5.92
671.99	-1.92
672.021	-1.92
672.053	-11.92
672.084	12.08
672.115	0.08
672.146	-7.92
672.178	-9.92
672.209	-11.92
672.24	-0.92
672.271	22.08
672.303	1.08
672.334	-0.92
672.365	0.08
672.396	8.08
672.427	-3.92
672.459	7.08
672.49	16.08
672.521	7.08
672.552	15.08
672.583	6.08
672.615	4.08
672.646	5.08
672.677	-3.92
672.708	3.08
672.739	9.08
672.77	4.08
672.802	7.08
672.833	12.08
672.864	1.08
672.895	-14.92
672.926	-0.92
672.957	-16.92
672.989	-1.92
673.02	-5.92
673.051	-2.92
673.082	12.08
673.113	-15.92
673.144	6.08
673.175	0.08
673.206	-8.92
673.238	1.08
673.269	2.08
673.3	-4.92
673.331	4.08
673.362	2.08
673.393	12.08
673.424	-4.92
673.455	7.08
673.487	-14.92
673.518	13.08
673.549	5.08
673.58	0.08
673.611	7.08
673.642	2.08
673.673	-22.92
673.704	8.08
673.735	-1.92
673.766	8.08
673.797	18.08
673.828	8.08
673.86	-3.92
673.891	-17.92
673.922	-0.92
673.953	-6.92
673.984	1.08
674.015	10.08
674.046	2.08
674.077	12.08
674.108	-15.92
674.139	-2.92
674.17	-15.92
674.201	-10.92
674.232	-16.92
674.263	-16.92
674.294	-6.92
674.325	-7.92
674.356	7.08
674.387	6.08
674.418	-3.92
674.449	-12.92
674.48	-8.92
674.511	3.08
674.542	-4.92
674.573	-11.92
674.604	23.08
674.635	-15.92
674.666	5.08
674.697	4.08
674.728	0.08
674.759	5.08
674.79	-15.92
674.821	-4.92
674.852	6.08
674.883	-5.92
674.914	3.08
674.945	5.08
674.976	-6.92
675.007	-0.92
675.038	-8.92
675.069	-9.92
675.1	-4.92
675.131	0.08
675.162	-10.92
675.193	-7.92
675.224	5.08
675.254	0.08
675.285	2.08
675.316	10.08
675.347	-18.92
675.378	-11.92
675.409	-6.92
675.44	1.08
675.471	-14.92
675.502	-14.92
675.533	4.08
675.564	8.08
675.595	10.08
675.625	3.08
675.656	0.08
675.687	10.08
675.718	-10.92
675.749	-7.92
675.78	3.08
675.811	5.08
675.842	5.08
675.873	9.08
675.903	-2.92
675.934	-1.92
675.965	4.08
675.996	2.08
676.027	8.08
676.058	-4.92
676.089	5.08
676.119	1.08
676.15	11.08
676.181	17.08
676.212	-8.92
676.243	8.08
676.274	2.08
676.304	8.08
676.335	-23.92
676.366	-6.92
676.397	-16.92
676.428	5.08
676.459	-1.92
676.489	13.08
676.52	17.08
676.551	2.08
676.582	4.08
676.613	15.08
676.643	-5.92
676.674	4.08
676.705	-8.92
676.736	5.08
676.767	25.08
676.797	8.08
676.828	-9.92
676.859	-4.92
676.89	-16.92
676.92	-6.92
676.951	-5.92
676.982	7.08
677.013	-0.92
677.044	8.08
677.074	-0.92
677.105	5.08
677.136	7.08
677.167	8.08
677.197	19.08
677.228	-0.92
677.259	-1.92
677.289	-4.92
677.32	1.08
677.351	-7.92
677.382	-0.92
677.412	-2.92
677.443	-2.92
677.474	9.08
677.505	-19.92
677.535	4.08
677.566	-6.92
677.597	-11.92
677.627	-7.92
677.658	-2.92
677.689	-6.92
677.72	-6.92
677.75	0.08
677.781	11.08
677.812	6.08
677.842	7.08
677.873	7.08
677.904	-10.92
677.934	6.08
677.965	10.08
677.996	4.08
678.026	6.08
678.057	2.08
678.088	5.08
678.118	-2.92
678.149	-19.92
678.18	-0.92
678.21	-3.92
678.241	7.08
678.272	-8.92
678.302	20.08
678.333	9.08
678.363	20.08
678.394	-3.92
678.425	20.08
678.455	-1.92
678.486	9.08
678.517	-4.92
678.547	-0.92
678.578	17.08
678.608	-26.92
678.639	2.08
678.67	0.08
678.7	-5.92
678.731	0.08
678.761	6.08
678.792	1.08
678.823	11.08
678.853	2.08
678.884	-7.92
678.914	-1.92
678.945	-5.92
678.975	6.08
679.006	5.08
679.037	-3.92
679.067	17.08
679.098	13.08
679.128	-4.92
679.159	-5.92
679.189	10.08
679.22	-17.92
679.25	24.08
679.281	5.08
679.312	-20.92
679.342	5.08
679.373	30.08
679.403	-0.92
679.434	-3.92
679.464	13.08
679.495	7.08
679.525	6.08
679.556	-3.92
679.586	-6.92
679.617	9.08
679.647	10.08
679.678	8.08
679.708	-1.92
679.739	-6.92
679.769	-4.92
679.8	-10.92
679.83	10.08
679.861	10.08
679.891	2.08
679.922	-3.92
679.952	1.08
679.983	2.08
680.013	8.08
680.044	-0.92
680.074	7.08
680.105	16.08
680.135	17.08
680.165	7.08
680.196	4.08
680.226	20.08
680.257	6.08
680.287	10.08
680.318	0.08
680.348	-4.92
680.379	3.08
680.409	5.08
680.439	4.08
680.47	-10.92
680.5	-7.92
680.531	7.08
680.561	10.08
680.592	9.08
680.622	19.08
680.652	-4.92
680.683	16.08
680.713	5.08
680.744	-8.92
680.774	-10.92
680.804	24.08
680.835	3.08
680.865	-6.92
680.896	15.08
680.926	17.08
680.956	11.08
680.987	9.08
681.017	8.08
681.047	-3.92
681.078	-9.92
681.108	1.08
681.139	7.08
681.169	6.08
681.199	4.08
681.23	-1.92
681.26	2.08
681.29	7.08
681.321	-4.92
681.351	-0.92
681.381	-2.92
681.412	2.08
681.442	20.08
681.472	19.08
681.503	7.08
681.533	6.08
681.563	-8.92
681.594	2.08
681.624	32.08
681.654	6.08
681.685	-0.92
681.715	12.08
681.745	13.08
681.775	0.08
681.806	4.08
681.836	5.08
681.866	-5.92
681.897	6.08
681.927	7.08
681.957	-18.92
681.987	16.08
682.018	0.08
682.048	-2.92
682.078	-4.92
682.109	12.08
682.139	15.08
682.169	-5.92
682.199	-3.92
682.23	5.08
682.26	12.08
682.29	3.08
682.32	-3.92
682.351	-7.92
682.381	-3.92
682.411	0.08
682.441	7.08
682.472	-21.92
682.502	-9.92
682.532	1.08
682.562	-4.92
682.592	1.08
