Data from HighRes_H2D2_15_04_11_07_2024_HR4C61891__47__15-05-39-143.txt Node

Date: Thu Nov 07 15:05:39 EST 2024
User: crc00042
Spectrometer: HR4C6189
Trigger mode: 4
Integration Time (sec): 1.000000E-1
Scans to average: 1
Electric dark correction enabled: true
Nonlinearity correction enabled: false
Boxcar width: 0
XAxis mode: Wavelengths
Number of Pixels in Spectrum: 3648
>>>>>Begin Spectral Data<<<<<
639.567	-74.46
639.602	-74.46
639.636	-74.46
639.67	-50.46
639.704	7.54
639.738	-12.46
639.773	7.54
639.807	-17.46
639.841	-1.46
639.875	22.54
639.909	-13.46
639.943	-10.46
639.978	-10.46
640.012	2.54
640.046	5.54
640.08	19.54
640.114	12.54
640.148	-4.46
640.182	-10.46
640.217	-17.46
640.251	10.54
640.285	12.54
640.319	-10.46
640.353	3.54
640.387	6.54
640.421	12.54
640.455	2.54
640.49	12.54
640.524	0.54
640.558	10.54
640.592	-1.46
640.626	-6.46
640.66	1.54
640.694	5.54
640.728	14.54
640.762	9.54
640.796	13.54
640.83	12.54
640.865	3.54
640.899	0.54
640.933	1.54
640.967	8.54
641.001	18.54
641.035	5.54
641.069	-8.46
641.103	-16.46
641.137	-4.46
641.171	-2.46
641.205	2.54
641.239	3.54
641.273	6.54
641.307	19.54
641.341	6.54
641.375	-15.46
641.409	-14.46
641.443	12.54
641.477	2.54
641.511	11.54
641.545	10.54
641.579	-5.46
641.614	16.54
641.648	5.54
641.682	-6.46
641.716	9.54
641.75	12.54
641.784	11.54
641.818	3.54
641.852	4.54
641.886	1.54
641.919	19.54
641.953	-0.46
641.987	-15.46
642.021	4.54
642.055	9.54
642.089	7.54
642.123	-20.46
642.157	14.54
642.191	-3.46
642.225	15.54
642.259	-2.46
642.293	10.54
642.327	0.54
642.361	-8.46
642.395	17.54
642.429	23.54
642.463	11.54
642.497	22.54
642.531	-13.46
642.565	8.54
642.599	-5.46
642.633	-16.46
642.666	-8.46
642.7	17.54
642.734	14.54
642.768	-5.46
642.802	-8.46
642.836	17.54
642.87	7.54
642.904	11.54
642.938	-7.46
642.972	-7.46
643.005	-9.46
643.039	23.54
643.073	-12.46
643.107	3.54
643.141	-6.46
643.175	5.54
643.209	-3.46
643.243	-12.46
643.276	-0.46
643.31	-0.46
643.344	-2.46
643.378	-2.46
643.412	9.54
643.446	11.54
643.48	-5.46
643.513	9.54
643.547	-5.46
643.581	1.54
643.615	21.54
643.649	18.54
643.683	14.54
643.716	6.54
643.75	3.54
643.784	-13.46
643.818	9.54
643.852	-6.46
643.886	2.54
643.919	10.54
643.953	7.54
643.987	15.54
644.021	14.54
644.055	16.54
644.088	-15.46
644.122	-7.46
644.156	-2.46
644.19	1.54
644.224	1.54
644.257	1.54
644.291	8.54
644.325	5.54
644.359	-2.46
644.392	24.54
644.426	13.54
644.46	4.54
644.494	-14.46
644.527	-6.46
644.561	2.54
644.595	5.54
644.629	-5.46
644.662	8.54
644.696	8.54
644.73	9.54
644.764	-1.46
644.797	4.54
644.831	1.54
644.865	18.54
644.899	7.54
644.932	26.54
644.966	0.54
645	-1.46
645.033	3.54
645.067	8.54
645.101	9.54
645.135	-12.46
645.168	-30.46
645.202	-11.46
645.236	0.54
645.269	2.54
645.303	-12.46
645.337	-5.46
645.37	-9.46
645.404	3.54
645.438	2.54
645.471	2.54
645.505	18.54
645.539	12.54
645.572	-10.46
645.606	-12.46
645.64	12.54
645.673	17.54
645.707	28.54
645.741	3.54
645.774	-9.46
645.808	3.54
645.842	0.54
645.875	21.54
645.909	-0.46
645.943	-12.46
645.976	0.54
646.01	-1.46
646.043	15.54
646.077	9.54
646.111	9.54
646.144	2.54
646.178	2.54
646.212	-20.46
646.245	-6.46
646.279	7.54
646.312	5.54
646.346	-0.46
646.38	-7.46
646.413	25.54
646.447	23.54
646.48	14.54
646.514	14.54
646.547	-2.46
646.581	2.54
646.615	5.54
646.648	-11.46
646.682	-7.46
646.715	-15.46
646.749	4.54
646.782	-5.46
646.816	-4.46
646.85	-1.46
646.883	0.54
646.917	-5.46
646.95	5.54
646.984	10.54
647.017	7.54
647.051	6.54
647.084	17.54
647.118	-7.46
647.151	-6.46
647.185	-3.46
647.218	-9.46
647.252	3.54
647.285	-17.46
647.319	-14.46
647.353	4.54
647.386	15.54
647.42	12.54
647.453	5.54
647.487	6.54
647.52	8.54
647.553	3.54
647.587	-3.46
647.62	0.54
647.654	13.54
647.687	11.54
647.721	5.54
647.754	1.54
647.788	-3.46
647.821	-11.46
647.855	-14.46
647.888	14.54
647.922	18.54
647.955	13.54
647.989	0.54
648.022	2.54
648.055	11.54
648.089	-5.46
648.122	15.54
648.156	0.54
648.189	-2.46
648.223	2.54
648.256	-1.46
648.29	-3.46
648.323	3.54
648.356	18.54
648.39	11.54
648.423	-2.46
648.457	-0.46
648.49	10.54
648.523	13.54
648.557	-0.46
648.59	-14.46
648.624	-8.46
648.657	16.54
648.69	16.54
648.724	8.54
648.757	3.54
648.791	9.54
648.824	-6.46
648.857	14.54
648.891	-9.46
648.924	9.54
648.957	15.54
648.991	-3.46
649.024	10.54
649.057	-1.46
649.091	1.54
649.124	10.54
649.158	16.54
649.191	25.54
649.224	16.54
649.258	21.54
649.291	15.54
649.324	13.54
649.358	11.54
649.391	13.54
649.424	5.54
649.458	10.54
649.491	4.54
649.524	-0.46
649.557	-9.46
649.591	-13.46
649.624	6.54
649.657	1.54
649.691	-3.46
649.724	-1.46
649.757	1.54
649.791	-10.46
649.824	15.54
649.857	20.54
649.89	2.54
649.924	-10.46
649.957	-7.46
649.99	-17.46
650.023	-13.46
650.057	5.54
650.09	17.54
650.123	-5.46
650.157	18.54
650.19	17.54
650.223	-5.46
650.256	-5.46
650.29	3.54
650.323	-2.46
650.356	12.54
650.389	5.54
650.423	5.54
650.456	14.54
650.489	2.54
650.522	27.54
650.555	8.54
650.589	5.54
650.622	10.54
650.655	18.54
650.688	8.54
650.721	-8.46
650.755	17.54
650.788	25.54
650.821	11.54
650.854	-3.46
650.887	0.54
650.921	7.54
650.954	0.54
650.987	4.54
651.02	-21.46
651.053	-13.46
651.087	-7.46
651.12	19.54
651.153	12.54
651.186	12.54
651.219	-2.46
651.252	8.54
651.286	4.54
651.319	1.54
651.352	12.54
651.385	2.54
651.418	6.54
651.451	5.54
651.484	1.54
651.518	-6.46
651.551	14.54
651.584	4.54
651.617	26.54
651.65	12.54
651.683	18.54
651.716	12.54
651.749	-7.46
651.783	2.54
651.816	-1.46
651.849	15.54
651.882	9.54
651.915	4.54
651.948	10.54
651.981	-0.46
652.014	4.54
652.047	-6.46
652.08	-13.46
652.114	-13.46
652.147	-0.46
652.18	-0.46
652.213	23.54
652.246	17.54
652.279	-9.46
652.312	12.54
652.345	-8.46
652.378	7.54
652.411	13.54
652.444	16.54
652.477	6.54
652.51	-5.46
652.543	-0.46
652.576	18.54
652.609	-5.46
652.642	13.54
652.675	23.54
652.709	-1.46
652.742	10.54
652.775	17.54
652.808	17.54
652.841	-3.46
652.874	4.54
652.907	12.54
652.94	6.54
652.973	0.54
653.006	-5.46
653.039	-1.46
653.072	-6.46
653.105	15.54
653.138	-8.46
653.171	5.54
653.204	10.54
653.237	-0.46
653.27	-19.46
653.303	8.54
653.336	6.54
653.368	-4.46
653.401	-6.46
653.434	-13.46
653.467	6.54
653.5	-11.46
653.533	-7.46
653.566	2.54
653.599	0.54
653.632	-7.46
653.665	-2.46
653.698	-12.46
653.731	2.54
653.764	23.54
653.797	0.54
653.83	11.54
653.863	10.54
653.896	-2.46
653.929	-4.46
653.961	-0.46
653.994	-12.46
654.027	-3.46
654.06	6.54
654.093	2.54
654.126	15.54
654.159	3.54
654.192	12.54
654.225	12.54
654.258	-4.46
654.29	1.54
654.323	8.54
654.356	-4.46
654.389	3.54
654.422	1.54
654.455	4.54
654.488	-0.46
654.521	-3.46
654.553	-7.46
654.586	-1.46
654.619	3.54
654.652	-9.46
654.685	6.54
654.718	21.54
654.751	11.54
654.783	-9.46
654.816	15.54
654.849	3.54
654.882	-16.46
654.915	-9.46
654.948	3.54
654.98	-6.46
655.013	-8.46
655.046	-6.46
655.079	4.54
655.112	10.54
655.144	-0.46
655.177	3.54
655.21	10.54
655.243	25.54
655.276	14.54
655.308	-8.46
655.341	-11.46
655.374	0.54
655.407	-2.46
655.44	9.54
655.472	7.54
655.505	0.54
655.538	11.54
655.571	18.54
655.603	14.54
655.636	-5.46
655.669	11.54
655.702	11.54
655.734	-0.46
655.767	-5.46
655.8	24.54
655.833	16.54
655.865	10.54
655.898	-11.46
655.931	8.54
655.964	17.54
655.996	24.54
656.029	42.54
656.062	19.54
656.095	68.54
656.127	79.54
656.16	206.54
656.193	629.54
656.225	932.54
656.258	554.54
656.291	205.54
656.324	170.54
656.356	348.54
656.389	743.54
656.422	673.54
656.454	237.54
656.487	85.54
656.52	42.54
656.552	21.54
656.585	12.54
656.618	-6.46
656.65	19.54
656.683	-1.46
656.716	16.54
656.748	17.54
656.781	-10.46
656.814	3.54
656.846	6.54
656.879	-9.46
656.912	5.54
656.944	-3.46
656.977	-3.46
657.01	-9.46
657.042	6.54
657.075	11.54
657.108	-2.46
657.14	4.54
657.173	18.54
657.205	40.54
657.238	12.54
657.271	19.54
657.303	-9.46
657.336	3.54
657.369	-4.46
657.401	1.54
657.434	7.54
657.466	14.54
657.499	3.54
657.532	-9.46
657.564	-0.46
657.597	-4.46
657.629	14.54
657.662	2.54
657.694	5.54
657.727	-18.46
657.76	-0.46
657.792	-9.46
657.825	-11.46
657.857	2.54
657.89	-8.46
657.922	11.54
657.955	-6.46
657.987	1.54
658.02	9.54
658.053	23.54
658.085	-1.46
658.118	7.54
658.15	0.54
658.183	23.54
658.215	10.54
658.248	-3.46
658.28	-1.46
658.313	9.54
658.345	17.54
658.378	4.54
658.41	-1.46
658.443	10.54
658.475	3.54
658.508	3.54
658.54	7.54
658.573	-4.46
658.605	1.54
658.638	-9.46
658.67	-2.46
658.703	2.54
658.735	-12.46
658.768	2.54
658.8	14.54
658.833	23.54
658.865	17.54
658.898	12.54
658.93	-13.46
658.963	0.54
658.995	-4.46
659.028	29.54
659.06	10.54
659.092	1.54
659.125	4.54
659.157	1.54
659.19	-10.46
659.222	-1.46
659.255	-3.46
659.287	-0.46
659.32	-3.46
659.352	0.54
659.384	4.54
659.417	4.54
659.449	13.54
659.482	14.54
659.514	-15.46
659.546	-6.46
659.579	-19.46
659.611	-6.46
659.644	-7.46
659.676	0.54
659.708	-4.46
659.741	-2.46
659.773	12.54
659.806	-3.46
659.838	0.54
659.87	-4.46
659.903	-10.46
659.935	6.54
659.967	15.54
660	3.54
660.032	-8.46
660.065	-1.46
660.097	6.54
660.129	2.54
660.162	-4.46
660.194	0.54
660.226	-8.46
660.259	10.54
660.291	-8.46
660.323	11.54
660.356	-4.46
660.388	-5.46
660.42	-1.46
660.453	9.54
660.485	10.54
660.517	0.54
660.55	10.54
660.582	-1.46
660.614	12.54
660.647	3.54
660.679	-13.46
660.711	9.54
660.743	-3.46
660.776	-3.46
660.808	-10.46
660.84	0.54
660.873	-2.46
660.905	-8.46
660.937	2.54
660.969	12.54
661.002	13.54
661.034	20.54
661.066	15.54
661.099	9.54
661.131	15.54
661.163	-6.46
661.195	-1.46
661.228	17.54
661.26	4.54
661.292	9.54
661.324	-0.46
661.357	9.54
661.389	7.54
661.421	8.54
661.453	9.54
661.485	0.54
661.518	5.54
661.55	7.54
661.582	18.54
661.614	14.54
661.647	7.54
661.679	0.54
661.711	10.54
661.743	12.54
661.775	-9.46
661.808	26.54
661.84	-14.46
661.872	17.54
661.904	1.54
661.936	-6.46
661.969	2.54
662.001	-2.46
662.033	-3.46
662.065	-5.46
662.097	6.54
662.129	3.54
662.162	2.54
662.194	-4.46
662.226	2.54
662.258	2.54
662.29	3.54
662.322	-4.46
662.355	-13.46
662.387	19.54
662.419	11.54
662.451	11.54
662.483	22.54
662.515	-7.46
662.547	-7.46
662.58	6.54
662.612	2.54
662.644	-9.46
662.676	0.54
662.708	13.54
662.74	-4.46
662.772	7.54
662.804	8.54
662.836	16.54
662.869	13.54
662.901	12.54
662.933	3.54
662.965	30.54
662.997	-1.46
663.029	-20.46
663.061	2.54
663.093	-7.46
663.125	2.54
663.157	17.54
663.189	12.54
663.221	7.54
663.254	7.54
663.286	1.54
663.318	-18.46
663.35	-2.46
663.382	1.54
663.414	1.54
663.446	-11.46
663.478	-8.46
663.51	23.54
663.542	-0.46
663.574	9.54
663.606	13.54
663.638	-7.46
663.67	-4.46
663.702	-13.46
663.734	0.54
663.766	2.54
663.798	-17.46
663.83	5.54
663.862	-7.46
663.894	1.54
663.926	-10.46
663.958	12.54
663.99	2.54
664.022	-4.46
664.054	13.54
664.086	1.54
664.118	-22.46
664.15	-21.46
664.182	-0.46
664.214	-9.46
664.246	0.54
664.278	2.54
664.31	19.54
664.342	1.54
664.374	12.54
664.406	7.54
664.438	-6.46
664.47	4.54
664.502	0.54
664.534	-4.46
664.566	-13.46
664.598	0.54
664.63	-11.46
664.662	-0.46
664.693	9.54
664.725	-4.46
664.757	7.54
664.789	-6.46
664.821	6.54
664.853	16.54
664.885	6.54
664.917	8.54
664.949	20.54
664.981	24.54
665.013	-13.46
665.045	-2.46
665.076	-5.46
665.108	-4.46
665.14	-9.46
665.172	11.54
665.204	-15.46
665.236	-5.46
665.268	19.54
665.3	11.54
665.331	7.54
665.363	17.54
665.395	-6.46
665.427	10.54
665.459	6.54
665.491	-6.46
665.523	-1.46
665.555	0.54
665.586	-5.46
665.618	-17.46
665.65	-14.46
665.682	23.54
665.714	2.54
665.746	-13.46
665.777	1.54
665.809	7.54
665.841	23.54
665.873	6.54
665.905	4.54
665.937	6.54
665.968	-10.46
666	-1.46
666.032	5.54
666.064	-2.46
666.096	-12.46
666.127	10.54
666.159	9.54
666.191	15.54
666.223	-5.46
666.255	17.54
666.286	1.54
666.318	-9.46
666.35	13.54
666.382	4.54
666.413	0.54
666.445	-8.46
666.477	-6.46
666.509	-2.46
666.54	-7.46
666.572	0.54
666.604	25.54
666.636	7.54
666.667	1.54
666.699	21.54
666.731	9.54
666.763	-18.46
666.794	6.54
666.826	2.54
666.858	-4.46
666.89	12.54
666.921	7.54
666.953	-1.46
666.985	7.54
667.017	23.54
667.048	3.54
667.08	9.54
667.112	8.54
667.143	-16.46
667.175	5.54
667.207	6.54
667.238	16.54
667.27	3.54
667.302	15.54
667.334	-2.46
667.365	14.54
667.397	-13.46
667.429	13.54
667.46	22.54
667.492	16.54
667.524	9.54
667.555	15.54
667.587	1.54
667.619	-12.46
667.65	-4.46
667.682	2.54
667.714	10.54
667.745	7.54
667.777	15.54
667.808	4.54
667.84	10.54
667.872	6.54
667.903	29.54
667.935	-10.46
667.967	3.54
667.998	9.54
668.03	-1.46
668.061	9.54
668.093	-1.46
668.125	4.54
668.156	10.54
668.188	3.54
668.22	-7.46
668.251	-7.46
668.283	-1.46
668.314	20.54
668.346	-8.46
668.377	-7.46
668.409	-4.46
668.441	3.54
668.472	2.54
668.504	33.54
668.535	11.54
668.567	11.54
668.599	13.54
668.63	10.54
668.662	4.54
668.693	12.54
668.725	2.54
668.756	-10.46
668.788	-7.46
668.819	11.54
668.851	16.54
668.882	1.54
668.914	5.54
668.946	3.54
668.977	-20.46
669.009	6.54
669.04	-9.46
669.072	-6.46
669.103	-1.46
669.135	-6.46
669.166	4.54
669.198	-7.46
669.229	5.54
669.261	-7.46
669.292	-2.46
669.324	13.54
669.355	10.54
669.387	-9.46
669.418	15.54
669.45	-0.46
669.481	12.54
669.513	24.54
669.544	13.54
669.576	4.54
669.607	12.54
669.639	10.54
669.67	-8.46
669.701	16.54
669.733	-19.46
669.764	9.54
669.796	-6.46
669.827	-8.46
669.859	-4.46
669.89	20.54
669.922	7.54
669.953	-0.46
669.985	7.54
670.016	18.54
670.047	12.54
670.079	-2.46
670.11	19.54
670.142	2.54
670.173	-4.46
670.204	11.54
670.236	10.54
670.267	13.54
670.299	-5.46
670.33	2.54
670.362	17.54
670.393	-3.46
670.424	6.54
670.456	-2.46
670.487	-3.46
670.518	4.54
670.55	10.54
670.581	5.54
670.613	20.54
670.644	4.54
670.675	5.54
670.707	4.54
670.738	5.54
670.769	-1.46
670.801	-1.46
670.832	-1.46
670.864	-18.46
670.895	14.54
670.926	6.54
670.958	-16.46
670.989	-6.46
671.02	-15.46
671.052	-10.46
671.083	1.54
671.114	-6.46
671.146	2.54
671.177	6.54
671.208	-3.46
671.24	2.54
671.271	0.54
671.302	9.54
671.333	3.54
671.365	4.54
671.396	7.54
671.427	8.54
671.459	8.54
671.49	10.54
671.521	9.54
671.553	-1.46
671.584	5.54
671.615	-8.46
671.646	5.54
671.678	3.54
671.709	-22.46
671.74	-15.46
671.771	-6.46
671.803	-21.46
671.834	-3.46
671.865	-18.46
671.896	9.54
671.928	11.54
671.959	11.54
671.99	-12.46
672.021	1.54
672.053	-13.46
672.084	-2.46
672.115	-5.46
672.146	-6.46
672.178	-18.46
672.209	-14.46
672.24	2.54
672.271	29.54
672.303	14.54
672.334	-11.46
672.365	2.54
672.396	7.54
672.427	24.54
672.459	21.54
672.49	30.54
672.521	1.54
672.552	10.54
672.583	15.54
672.615	-3.46
672.646	19.54
672.677	-8.46
672.708	9.54
672.739	3.54
672.77	-1.46
672.802	-14.46
672.833	9.54
672.864	5.54
672.895	-1.46
672.926	10.54
672.957	-9.46
672.989	-2.46
673.02	19.54
673.051	5.54
673.082	18.54
673.113	6.54
673.144	-1.46
673.175	8.54
673.206	-1.46
673.238	-9.46
673.269	0.54
673.3	-8.46
673.331	-3.46
673.362	7.54
673.393	9.54
673.424	16.54
673.455	25.54
673.487	7.54
673.518	3.54
673.549	10.54
673.58	10.54
673.611	10.54
673.642	10.54
673.673	-2.46
673.704	-2.46
673.735	8.54
673.766	11.54
673.797	7.54
673.828	-2.46
673.86	-13.46
673.891	-14.46
673.922	2.54
673.953	-9.46
673.984	9.54
674.015	12.54
674.046	7.54
674.077	3.54
674.108	-1.46
674.139	3.54
674.17	13.54
674.201	0.54
674.232	6.54
674.263	-8.46
674.294	-7.46
674.325	-4.46
674.356	19.54
674.387	9.54
674.418	17.54
674.449	-1.46
674.48	-0.46
674.511	7.54
674.542	12.54
674.573	3.54
674.604	6.54
674.635	1.54
674.666	1.54
674.697	2.54
674.728	6.54
674.759	5.54
674.79	0.54
674.821	8.54
674.852	11.54
674.883	2.54
674.914	9.54
674.945	-6.46
674.976	-3.46
675.007	-1.46
675.038	2.54
675.069	-21.46
675.1	-2.46
675.131	6.54
675.162	-6.46
675.193	-3.46
675.224	-3.46
675.254	-1.46
675.285	1.54
675.316	21.54
675.347	-5.46
675.378	-1.46
675.409	-12.46
675.44	0.54
675.471	4.54
675.502	-5.46
675.533	3.54
675.564	7.54
675.595	-0.46
675.625	19.54
675.656	23.54
675.687	-1.46
675.718	-13.46
675.749	24.54
675.78	14.54
675.811	-5.46
675.842	14.54
675.873	6.54
675.903	-4.46
675.934	-3.46
675.965	6.54
675.996	10.54
676.027	12.54
676.058	9.54
676.089	-20.46
676.119	13.54
676.15	5.54
676.181	5.54
676.212	10.54
676.243	3.54
676.274	-3.46
676.304	30.54
676.335	-1.46
676.366	19.54
676.397	7.54
676.428	6.54
676.459	11.54
676.489	26.54
676.52	16.54
676.551	0.54
676.582	-8.46
676.613	13.54
676.643	2.54
676.674	17.54
676.705	7.54
676.736	17.54
676.767	13.54
676.797	10.54
676.828	5.54
676.859	7.54
676.89	4.54
676.92	10.54
676.951	9.54
676.982	2.54
677.013	8.54
677.044	6.54
677.074	9.54
677.105	-1.46
677.136	5.54
677.167	-7.46
677.197	11.54
677.228	17.54
677.259	22.54
677.289	8.54
677.32	-12.46
677.351	-10.46
677.382	0.54
677.412	-12.46
677.443	13.54
677.474	9.54
677.505	-1.46
677.535	1.54
677.566	-6.46
677.597	3.54
677.627	-5.46
677.658	-4.46
677.689	-2.46
677.72	-1.46
677.75	-3.46
677.781	14.54
677.812	-5.46
677.842	14.54
677.873	10.54
677.904	14.54
677.934	-1.46
677.965	-5.46
677.996	-19.46
678.026	5.54
678.057	5.54
678.088	-10.46
678.118	-13.46
678.149	3.54
678.18	2.54
678.21	5.54
678.241	-4.46
678.272	1.54
678.302	10.54
678.333	17.54
678.363	13.54
678.394	8.54
678.425	10.54
678.455	12.54
678.486	17.54
678.517	-8.46
678.547	-1.46
678.578	12.54
678.608	-0.46
678.639	11.54
678.67	-4.46
678.7	0.54
678.731	-16.46
678.761	0.54
678.792	-6.46
678.823	2.54
678.853	7.54
678.884	-5.46
678.914	10.54
678.945	13.54
678.975	7.54
679.006	16.54
679.037	-6.46
679.067	14.54
679.098	2.54
679.128	-5.46
679.159	0.54
679.189	14.54
679.22	-0.46
679.25	10.54
679.281	1.54
679.312	2.54
679.342	13.54
679.373	26.54
679.403	9.54
679.434	21.54
679.464	-5.46
679.495	-6.46
679.525	9.54
679.556	5.54
679.586	12.54
679.617	0.54
679.647	-9.46
679.678	4.54
679.708	-4.46
679.739	-5.46
679.769	-5.46
679.8	-1.46
679.83	3.54
679.861	21.54
679.891	-3.46
679.922	-13.46
679.952	4.54
679.983	5.54
680.013	10.54
680.044	1.54
680.074	19.54
680.105	7.54
680.135	1.54
680.165	-0.46
680.196	10.54
680.226	13.54
680.257	12.54
680.287	8.54
680.318	-5.46
680.348	-6.46
680.379	15.54
680.409	-0.46
680.439	1.54
680.47	5.54
680.5	-1.46
680.531	-11.46
680.561	18.54
680.592	11.54
680.622	15.54
680.652	-0.46
680.683	19.54
680.713	2.54
680.744	10.54
680.774	-15.46
680.804	8.54
680.835	11.54
680.865	11.54
680.896	10.54
680.926	2.54
680.956	2.54
680.987	11.54
681.017	1.54
681.047	-6.46
681.078	-17.46
681.108	2.54
681.139	-2.46
681.169	7.54
681.199	4.54
681.23	9.54
681.26	4.54
681.29	1.54
681.321	6.54
681.351	4.54
681.381	2.54
681.412	17.54
681.442	5.54
681.472	5.54
681.503	8.54
681.533	13.54
681.563	-1.46
681.594	-2.46
681.624	12.54
681.654	-0.46
681.685	7.54
681.715	11.54
681.745	10.54
681.775	-2.46
681.806	5.54
681.836	-3.46
681.866	-9.46
681.897	11.54
681.927	-3.46
681.957	-3.46
681.987	12.54
682.018	3.54
682.048	15.54
682.078	4.54
682.109	17.54
682.139	8.54
682.169	7.54
682.199	4.54
682.23	-3.46
682.26	2.54
682.29	-1.46
682.32	7.54
682.351	1.54
682.381	-13.46
682.411	-6.46
682.441	-12.46
682.472	-22.46
682.502	-6.46
682.532	1.54
682.562	10.54
682.592	12.54
682.623	1.54
