Data from HighRes_H2D2_15_04_11_07_2024_HR4C61891__70__15-05-41-443.txt Node

Date: Thu Nov 07 15:05:41 EST 2024
User: crc00042
Spectrometer: HR4C6189
Trigger mode: 4
Integration Time (sec): 1.000000E-1
Scans to average: 1
Electric dark correction enabled: true
Nonlinearity correction enabled: false
Boxcar width: 0
XAxis mode: Wavelengths
Number of Pixels in Spectrum: 3648
>>>>>Begin Spectral Data<<<<<
639.567	-27.62
639.602	-27.62
639.636	-27.62
639.67	-30.62
639.704	-15.62
639.738	5.38
639.773	0.38
639.807	-15.62
639.841	-5.62
639.875	7.38
639.909	-0.62
639.943	-0.62
639.978	-1.62
640.012	12.38
640.046	13.38
640.08	-0.62
640.114	5.38
640.148	-19.62
640.182	12.38
640.217	-4.62
640.251	-5.62
640.285	2.38
640.319	-0.62
640.353	1.38
640.387	10.38
640.421	2.38
640.455	-3.62
640.49	2.38
640.524	10.38
640.558	-3.62
640.592	2.38
640.626	2.38
640.66	12.38
640.694	-2.62
640.728	5.38
640.762	2.38
640.796	8.38
640.83	15.38
640.865	2.38
640.899	9.38
640.933	-9.62
640.967	-14.62
641.001	7.38
641.035	-6.62
641.069	11.38
641.103	-15.62
641.137	-21.62
641.171	-21.62
641.205	9.38
641.239	-2.62
641.273	30.38
641.307	-0.62
641.341	-2.62
641.375	-2.62
641.409	-4.62
641.443	-5.62
641.477	10.38
641.511	-2.62
641.545	0.38
641.579	11.38
641.614	6.38
641.648	2.38
641.682	-8.62
641.716	12.38
641.75	17.38
641.784	7.38
641.818	8.38
641.852	7.38
641.886	4.38
641.919	22.38
641.953	-1.62
641.987	-8.62
642.021	0.38
642.055	11.38
642.089	-1.62
642.123	1.38
642.157	0.38
642.191	9.38
642.225	19.38
642.259	10.38
642.293	6.38
642.327	-15.62
642.361	8.38
642.395	10.38
642.429	29.38
642.463	9.38
642.497	29.38
642.531	19.38
642.565	-13.62
642.599	2.38
642.633	-7.62
642.666	27.38
642.7	3.38
642.734	2.38
642.768	-0.62
642.802	6.38
642.836	4.38
642.87	-0.62
642.904	-6.62
642.938	1.38
642.972	-4.62
643.005	-2.62
643.039	1.38
643.073	11.38
643.107	4.38
643.141	-12.62
643.175	6.38
643.209	-12.62
643.243	-4.62
643.276	-1.62
643.31	8.38
643.344	-0.62
643.378	-9.62
643.412	11.38
643.446	-21.62
643.48	-9.62
643.513	10.38
643.547	-1.62
643.581	5.38
643.615	11.38
643.649	14.38
643.683	5.38
643.716	6.38
643.75	17.38
643.784	-2.62
643.818	12.38
643.852	2.38
643.886	10.38
643.919	1.38
643.953	-2.62
643.987	-6.62
644.021	-3.62
644.055	9.38
644.088	-4.62
644.122	-1.62
644.156	3.38
644.19	-5.62
644.224	4.38
644.257	-1.62
644.291	-4.62
644.325	1.38
644.359	3.38
644.392	14.38
644.426	9.38
644.46	13.38
644.494	-3.62
644.527	-17.62
644.561	10.38
644.595	14.38
644.629	-9.62
644.662	-2.62
644.696	15.38
644.73	-8.62
644.764	6.38
644.797	4.38
644.831	-5.62
644.865	14.38
644.899	6.38
644.932	29.38
644.966	-0.62
645	17.38
645.033	20.38
645.067	-23.62
645.101	7.38
645.135	-9.62
645.168	0.38
645.202	-5.62
645.236	-12.62
645.269	5.38
645.303	-5.62
645.337	-10.62
645.37	1.38
645.404	4.38
645.438	5.38
645.471	-11.62
645.505	8.38
645.539	2.38
645.572	7.38
645.606	-7.62
645.64	6.38
645.673	-5.62
645.707	11.38
645.741	7.38
645.774	3.38
645.808	6.38
645.842	-1.62
645.875	10.38
645.909	-9.62
645.943	-0.62
645.976	0.38
646.01	0.38
646.043	12.38
646.077	16.38
646.111	8.38
646.144	1.38
646.178	4.38
646.212	-16.62
646.245	9.38
646.279	-1.62
646.312	7.38
646.346	37.38
646.38	10.38
646.413	18.38
646.447	17.38
646.48	10.38
646.514	14.38
646.547	14.38
646.581	6.38
646.615	-0.62
646.648	5.38
646.682	-1.62
646.715	-11.62
646.749	13.38
646.782	6.38
646.816	1.38
646.85	10.38
646.883	-6.62
646.917	3.38
646.95	-4.62
646.984	-6.62
647.017	-2.62
647.051	9.38
647.084	-14.62
647.118	10.38
647.151	10.38
647.185	2.38
647.218	-15.62
647.252	-1.62
647.285	-5.62
647.319	6.38
647.353	4.38
647.386	11.38
647.42	-7.62
647.453	-8.62
647.487	2.38
647.52	8.38
647.553	15.38
647.587	2.38
647.62	-3.62
647.654	-5.62
647.687	-4.62
647.721	12.38
647.754	6.38
647.788	-2.62
647.821	-4.62
647.855	-2.62
647.888	8.38
647.922	14.38
647.955	11.38
647.989	3.38
648.022	14.38
648.055	14.38
648.089	-8.62
648.122	23.38
648.156	17.38
648.189	3.38
648.223	6.38
648.256	6.38
648.29	13.38
648.323	2.38
648.356	11.38
648.39	6.38
648.423	2.38
648.457	13.38
648.49	12.38
648.523	11.38
648.557	25.38
648.59	-3.62
648.624	8.38
648.657	10.38
648.69	23.38
648.724	-5.62
648.757	7.38
648.791	-3.62
648.824	6.38
648.857	15.38
648.891	11.38
648.924	16.38
648.957	20.38
648.991	4.38
649.024	25.38
649.057	9.38
649.091	-8.62
649.124	10.38
649.158	10.38
649.191	22.38
649.224	5.38
649.258	15.38
649.291	8.38
649.324	10.38
649.358	-15.62
649.391	18.38
649.424	18.38
649.458	4.38
649.491	-5.62
649.524	-6.62
649.557	-6.62
649.591	-13.62
649.624	8.38
649.657	12.38
649.691	17.38
649.724	1.38
649.757	9.38
649.791	-22.62
649.824	10.38
649.857	8.38
649.89	10.38
649.924	3.38
649.957	0.38
649.99	-16.62
650.023	6.38
650.057	2.38
650.09	19.38
650.123	-3.62
650.157	8.38
650.19	6.38
650.223	-7.62
650.256	-9.62
650.29	6.38
650.323	6.38
650.356	17.38
650.389	4.38
650.423	-4.62
650.456	16.38
650.489	6.38
650.522	14.38
650.555	15.38
650.589	19.38
650.622	5.38
650.655	11.38
650.688	-1.62
650.721	3.38
650.755	11.38
650.788	7.38
650.821	3.38
650.854	6.38
650.887	21.38
650.921	6.38
650.954	-13.62
650.987	8.38
651.02	-3.62
651.053	-8.62
651.087	-0.62
651.12	23.38
651.153	18.38
651.186	2.38
651.219	-4.62
651.252	9.38
651.286	19.38
651.319	5.38
651.352	3.38
651.385	3.38
651.418	1.38
651.451	16.38
651.484	10.38
651.518	14.38
651.551	18.38
651.584	10.38
651.617	14.38
651.65	12.38
651.683	1.38
651.716	9.38
651.749	-5.62
651.783	-16.62
651.816	-2.62
651.849	-7.62
651.882	-11.62
651.915	-5.62
651.948	14.38
651.981	-16.62
652.014	-4.62
652.047	-5.62
652.08	-20.62
652.114	9.38
652.147	-1.62
652.18	-3.62
652.213	47.38
652.246	2.38
652.279	1.38
652.312	15.38
652.345	2.38
652.378	7.38
652.411	21.38
652.444	14.38
652.477	19.38
652.51	17.38
652.543	8.38
652.576	22.38
652.609	-1.62
652.642	1.38
652.675	16.38
652.709	9.38
652.742	19.38
652.775	3.38
652.808	10.38
652.841	8.38
652.874	0.38
652.907	-0.62
652.94	-1.62
652.973	-17.62
653.006	0.38
653.039	6.38
653.072	-16.62
653.105	-10.62
653.138	-0.62
653.171	0.38
653.204	0.38
653.237	10.38
653.27	-4.62
653.303	3.38
653.336	10.38
653.368	16.38
653.401	16.38
653.434	6.38
653.467	15.38
653.5	0.38
653.533	-12.62
653.566	9.38
653.599	8.38
653.632	10.38
653.665	-5.62
653.698	-2.62
653.731	1.38
653.764	6.38
653.797	-0.62
653.83	19.38
653.863	17.38
653.896	-4.62
653.929	-3.62
653.961	10.38
653.994	7.38
654.027	0.38
654.06	6.38
654.093	7.38
654.126	9.38
654.159	-9.62
654.192	20.38
654.225	8.38
654.258	-4.62
654.29	16.38
654.323	18.38
654.356	1.38
654.389	8.38
654.422	-8.62
654.455	19.38
654.488	3.38
654.521	-11.62
654.553	-8.62
654.586	6.38
654.619	17.38
654.652	-1.62
654.685	21.38
654.718	6.38
654.751	9.38
654.783	15.38
654.816	13.38
654.849	4.38
654.882	15.38
654.915	-3.62
654.948	-8.62
654.98	-2.62
655.013	1.38
655.046	-0.62
655.079	4.38
655.112	12.38
655.144	14.38
655.177	5.38
655.21	16.38
655.243	16.38
655.276	8.38
655.308	-8.62
655.341	-10.62
655.374	10.38
655.407	-12.62
655.44	3.38
655.472	26.38
655.505	-12.62
655.538	-4.62
655.571	8.38
655.603	20.38
655.636	-1.62
655.669	11.38
655.702	23.38
655.734	8.38
655.767	10.38
655.8	17.38
655.833	21.38
655.865	14.38
655.898	18.38
655.931	15.38
655.964	20.38
655.996	21.38
656.029	24.38
656.062	14.38
656.095	62.38
656.127	82.38
656.16	209.38
656.193	637.38
656.225	970.38
656.258	553.38
656.291	230.38
656.324	178.38
656.356	329.38
656.389	779.38
656.422	671.38
656.454	232.38
656.487	83.38
656.52	35.38
656.552	13.38
656.585	16.38
656.618	7.38
656.65	4.38
656.683	-5.62
656.716	8.38
656.748	-9.62
656.781	-5.62
656.814	-11.62
656.846	-1.62
656.879	-0.62
656.912	7.38
656.944	-23.62
656.977	2.38
657.01	-5.62
657.042	11.38
657.075	22.38
657.108	8.38
657.14	9.38
657.173	10.38
657.205	19.38
657.238	3.38
657.271	12.38
657.303	1.38
657.336	10.38
657.369	6.38
657.401	3.38
657.434	4.38
657.466	5.38
657.499	-8.62
657.532	-4.62
657.564	20.38
657.597	2.38
657.629	14.38
657.662	24.38
657.694	-0.62
657.727	-7.62
657.76	18.38
657.792	-16.62
657.825	0.38
657.857	-3.62
657.89	3.38
657.922	11.38
657.955	-8.62
657.987	11.38
658.02	21.38
658.053	12.38
658.085	4.38
658.118	13.38
658.15	12.38
658.183	2.38
658.215	4.38
658.248	4.38
658.28	20.38
658.313	18.38
658.345	-6.62
658.378	4.38
658.41	16.38
658.443	0.38
658.475	-0.62
658.508	-9.62
658.54	0.38
658.573	-16.62
658.605	-0.62
658.638	-4.62
658.67	9.38
658.703	11.38
658.735	1.38
658.768	6.38
658.8	-7.62
658.833	17.38
658.865	7.38
658.898	7.38
658.93	-13.62
658.963	-1.62
658.995	-10.62
659.028	-1.62
659.06	3.38
659.092	1.38
659.125	1.38
659.157	4.38
659.19	-7.62
659.222	-7.62
659.255	-6.62
659.287	3.38
659.32	9.38
659.352	-6.62
659.384	13.38
659.417	-9.62
659.449	-10.62
659.482	-0.62
659.514	-14.62
659.546	-3.62
659.579	-22.62
659.611	-9.62
659.644	-9.62
659.676	-10.62
659.708	-24.62
659.741	-0.62
659.773	0.38
659.806	6.38
659.838	-1.62
659.87	2.38
659.903	-14.62
659.935	12.38
659.967	10.38
660	7.38
660.032	-10.62
660.065	15.38
660.097	-5.62
660.129	0.38
660.162	-3.62
660.194	6.38
660.226	14.38
660.259	-1.62
660.291	-1.62
660.323	-21.62
660.356	19.38
660.388	-13.62
660.42	-13.62
660.453	-4.62
660.485	4.38
660.517	31.38
660.55	16.38
660.582	-4.62
660.614	1.38
660.647	0.38
660.679	-16.62
660.711	2.38
660.743	-7.62
660.776	-18.62
660.808	-11.62
660.84	-15.62
660.873	7.38
660.905	-4.62
660.937	4.38
660.969	5.38
661.002	1.38
661.034	10.38
661.066	10.38
661.099	7.38
661.131	4.38
661.163	0.38
661.195	10.38
661.228	1.38
661.26	3.38
661.292	-5.62
661.324	12.38
661.357	11.38
661.389	6.38
661.421	16.38
661.453	-2.62
661.485	8.38
661.518	14.38
661.55	-6.62
661.582	-18.62
661.614	-12.62
661.647	8.38
661.679	10.38
661.711	9.38
661.743	-4.62
661.775	-4.62
661.808	13.38
661.84	-12.62
661.872	2.38
661.904	-9.62
661.936	6.38
661.969	2.38
662.001	-21.62
662.033	-14.62
662.065	-6.62
662.097	6.38
662.129	10.38
662.162	2.38
662.194	4.38
662.226	3.38
662.258	2.38
662.29	-8.62
662.322	-11.62
662.355	-17.62
662.387	25.38
662.419	2.38
662.451	4.38
662.483	14.38
662.515	-9.62
662.547	-2.62
662.58	-15.62
662.612	10.38
662.644	10.38
662.676	8.38
662.708	6.38
662.74	3.38
662.772	6.38
662.804	5.38
662.836	13.38
662.869	16.38
662.901	4.38
662.933	-12.62
662.965	12.38
662.997	24.38
663.029	4.38
663.061	-15.62
663.093	-18.62
663.125	11.38
663.157	4.38
663.189	2.38
663.221	9.38
663.254	11.38
663.286	11.38
663.318	-15.62
663.35	-14.62
663.382	12.38
663.414	10.38
663.446	1.38
663.478	-0.62
663.51	19.38
663.542	-3.62
663.574	8.38
663.606	-11.62
663.638	6.38
663.67	-0.62
663.702	-8.62
663.734	-7.62
663.766	11.38
663.798	15.38
663.83	5.38
663.862	21.38
663.894	6.38
663.926	-9.62
663.958	10.38
663.99	-4.62
664.022	4.38
664.054	12.38
664.086	-13.62
664.118	-10.62
664.15	-9.62
664.182	-4.62
664.214	0.38
664.246	24.38
664.278	9.38
664.31	0.38
664.342	-2.62
664.374	-0.62
664.406	16.38
664.438	-1.62
664.47	14.38
664.502	-1.62
664.534	-1.62
664.566	-19.62
664.598	8.38
664.63	2.38
664.662	8.38
664.693	-5.62
664.725	-5.62
664.757	3.38
664.789	5.38
664.821	13.38
664.853	12.38
664.885	7.38
664.917	14.38
664.949	9.38
664.981	17.38
665.013	-2.62
665.045	-11.62
665.076	12.38
665.108	12.38
665.14	-0.62
665.172	20.38
665.204	4.38
665.236	-3.62
665.268	15.38
665.3	-5.62
665.331	0.38
665.363	3.38
665.395	-16.62
665.427	-1.62
665.459	12.38
665.491	-6.62
665.523	8.38
665.555	8.38
665.586	14.38
665.618	10.38
665.65	-0.62
665.682	3.38
665.714	-5.62
665.746	0.38
665.777	15.38
665.809	-1.62
665.841	2.38
665.873	-0.62
665.905	10.38
665.937	7.38
665.968	6.38
666	7.38
666.032	6.38
666.064	-4.62
666.096	-2.62
666.127	17.38
666.159	13.38
666.191	9.38
666.223	19.38
666.255	13.38
666.286	5.38
666.318	7.38
666.35	19.38
666.382	-2.62
666.413	-5.62
666.445	-8.62
666.477	-14.62
666.509	-10.62
666.54	-5.62
666.572	2.38
666.604	0.38
666.636	-10.62
666.667	5.38
666.699	8.38
666.731	9.38
666.763	-2.62
666.794	6.38
666.826	9.38
666.858	-12.62
666.89	16.38
666.921	10.38
666.953	-2.62
666.985	10.38
667.017	18.38
667.048	-2.62
667.08	-8.62
667.112	-2.62
667.143	-6.62
667.175	12.38
667.207	11.38
667.238	8.38
667.27	8.38
667.302	8.38
667.334	-6.62
667.365	2.38
667.397	2.38
667.429	0.38
667.46	10.38
667.492	23.38
667.524	2.38
667.555	-7.62
667.587	-0.62
667.619	8.38
667.65	-1.62
667.682	24.38
667.714	24.38
667.745	11.38
667.777	8.38
667.808	4.38
667.84	6.38
667.872	6.38
667.903	30.38
667.935	1.38
667.967	1.38
667.998	13.38
668.03	12.38
668.061	9.38
668.093	3.38
668.125	2.38
668.156	0.38
668.188	12.38
668.22	-5.62
668.251	11.38
668.283	27.38
668.314	15.38
668.346	-9.62
668.377	5.38
668.409	-6.62
668.441	22.38
668.472	17.38
668.504	13.38
668.535	-1.62
668.567	-6.62
668.599	-10.62
668.63	-0.62
668.662	0.38
668.693	5.38
668.725	-9.62
668.756	13.38
668.788	4.38
668.819	1.38
668.851	-1.62
668.882	4.38
668.914	9.38
668.946	2.38
668.977	-10.62
669.009	4.38
669.04	-20.62
669.072	-6.62
669.103	6.38
669.135	-0.62
669.166	-9.62
669.198	17.38
669.229	17.38
669.261	4.38
669.292	-0.62
669.324	13.38
669.355	24.38
669.387	2.38
669.418	1.38
669.45	-0.62
669.481	10.38
669.513	7.38
669.544	17.38
669.576	11.38
669.607	13.38
669.639	32.38
669.67	-0.62
669.701	1.38
669.733	-14.62
669.764	-6.62
669.796	-3.62
669.827	-6.62
669.859	-10.62
669.89	7.38
669.922	4.38
669.953	8.38
669.985	9.38
670.016	17.38
670.047	6.38
670.079	6.38
670.11	5.38
670.142	7.38
670.173	-5.62
670.204	-1.62
670.236	6.38
670.267	0.38
670.299	3.38
670.33	11.38
670.362	22.38
670.393	-6.62
670.424	23.38
670.456	-7.62
670.487	3.38
670.518	3.38
670.55	4.38
670.581	12.38
670.613	13.38
670.644	-11.62
670.675	-2.62
670.707	14.38
670.738	3.38
670.769	-9.62
670.801	-9.62
670.832	17.38
670.864	-3.62
670.895	2.38
670.926	-0.62
670.958	10.38
670.989	-4.62
671.02	6.38
671.052	-2.62
671.083	11.38
671.114	6.38
671.146	24.38
671.177	-2.62
671.208	4.38
671.24	8.38
671.271	1.38
671.302	21.38
671.333	11.38
671.365	-5.62
671.396	-11.62
671.427	7.38
671.459	17.38
671.49	0.38
671.521	5.38
671.553	3.38
671.584	12.38
671.615	-1.62
671.646	0.38
671.678	-3.62
671.709	-2.62
671.74	-23.62
671.771	2.38
671.803	-2.62
671.834	-1.62
671.865	2.38
671.896	10.38
671.928	6.38
671.959	-8.62
671.99	7.38
672.021	-5.62
672.053	-4.62
672.084	12.38
672.115	8.38
672.146	3.38
672.178	-23.62
672.209	-0.62
672.24	16.38
672.271	33.38
672.303	2.38
672.334	2.38
672.365	5.38
672.396	5.38
672.427	5.38
672.459	10.38
672.49	32.38
672.521	6.38
672.552	17.38
672.583	18.38
672.615	13.38
672.646	13.38
672.677	6.38
672.708	-2.62
672.739	-4.62
672.77	7.38
672.802	11.38
672.833	-8.62
672.864	-1.62
672.895	8.38
672.926	4.38
672.957	-13.62
672.989	7.38
673.02	10.38
673.051	-3.62
673.082	12.38
673.113	1.38
673.144	-0.62
673.175	2.38
673.206	-1.62
673.238	8.38
673.269	6.38
673.3	-0.62
673.331	-6.62
673.362	7.38
673.393	7.38
673.424	-0.62
673.455	8.38
673.487	23.38
673.518	22.38
673.549	22.38
673.58	27.38
673.611	8.38
673.642	0.38
673.673	-23.62
673.704	8.38
673.735	8.38
673.766	4.38
673.797	-5.62
673.828	3.38
673.86	9.38
673.891	3.38
673.922	-1.62
673.953	4.38
673.984	9.38
674.015	10.38
674.046	-5.62
674.077	1.38
674.108	6.38
674.139	7.38
674.17	-7.62
674.201	-14.62
674.232	-5.62
674.263	-6.62
674.294	10.38
674.325	0.38
674.356	8.38
674.387	9.38
674.418	-1.62
674.449	0.38
674.48	2.38
674.511	9.38
674.542	18.38
674.573	6.38
674.604	22.38
674.635	1.38
674.666	3.38
674.697	4.38
674.728	-2.62
674.759	2.38
674.79	-10.62
674.821	8.38
674.852	14.38
674.883	8.38
674.914	6.38
674.945	-0.62
674.976	-6.62
675.007	4.38
675.038	-9.62
675.069	0.38
675.1	-11.62
675.131	15.38
675.162	9.38
675.193	-0.62
675.224	4.38
675.254	0.38
675.285	5.38
675.316	14.38
675.347	18.38
675.378	-4.62
675.409	7.38
675.44	8.38
675.471	14.38
675.502	-8.62
675.533	9.38
675.564	20.38
675.595	11.38
675.625	20.38
675.656	15.38
675.687	6.38
675.718	-12.62
675.749	7.38
675.78	24.38
675.811	23.38
675.842	11.38
675.873	-0.62
675.903	-17.62
675.934	-6.62
675.965	-1.62
675.996	4.38
676.027	1.38
676.058	0.38
676.089	2.38
676.119	-5.62
676.15	-3.62
676.181	0.38
676.212	-10.62
676.243	11.38
676.274	7.38
676.304	3.38
676.335	2.38
676.366	2.38
676.397	-4.62
676.428	-3.62
676.459	-0.62
676.489	11.38
676.52	10.38
676.551	8.38
676.582	-0.62
676.613	6.38
676.643	4.38
676.674	16.38
676.705	8.38
676.736	3.38
676.767	17.38
676.797	11.38
676.828	13.38
676.859	8.38
676.89	5.38
676.92	12.38
676.951	-6.62
676.982	14.38
677.013	-0.62
677.044	16.38
677.074	-6.62
677.105	-4.62
677.136	11.38
677.167	3.38
677.197	15.38
677.228	0.38
677.259	-1.62
677.289	-0.62
677.32	-0.62
677.351	-15.62
677.382	0.38
677.412	-11.62
677.443	10.38
677.474	5.38
677.505	3.38
677.535	-10.62
677.566	-3.62
677.597	-10.62
677.627	2.38
677.658	3.38
677.689	9.38
677.72	0.38
677.75	-10.62
677.781	0.38
677.812	8.38
677.842	7.38
677.873	6.38
677.904	-13.62
677.934	-5.62
677.965	2.38
677.996	-1.62
678.026	-4.62
678.057	1.38
678.088	0.38
678.118	-7.62
678.149	2.38
678.18	7.38
678.21	10.38
678.241	16.38
678.272	-6.62
678.302	-8.62
678.333	-7.62
678.363	1.38
678.394	3.38
678.425	-10.62
678.455	0.38
678.486	12.38
678.517	1.38
678.547	0.38
678.578	1.38
678.608	6.38
678.639	2.38
678.67	3.38
678.7	1.38
678.731	3.38
678.761	12.38
678.792	-13.62
678.823	3.38
678.853	1.38
678.884	-1.62
678.914	10.38
678.945	4.38
678.975	4.38
679.006	-4.62
679.037	-15.62
679.067	19.38
679.098	4.38
679.128	-7.62
679.159	13.38
679.189	12.38
679.22	-13.62
679.25	-7.62
679.281	-15.62
679.312	9.38
679.342	3.38
679.373	16.38
679.403	6.38
679.434	13.38
679.464	3.38
679.495	15.38
679.525	1.38
679.556	11.38
679.586	12.38
679.617	14.38
679.647	-7.62
679.678	-11.62
679.708	-2.62
679.739	11.38
679.769	-4.62
679.8	3.38
679.83	-1.62
679.861	6.38
679.891	2.38
679.922	5.38
679.952	7.38
679.983	12.38
680.013	13.38
680.044	6.38
680.074	12.38
680.105	12.38
680.135	0.38
680.165	15.38
680.196	5.38
680.226	-4.62
680.257	16.38
680.287	7.38
680.318	3.38
680.348	-6.62
680.379	10.38
680.409	2.38
680.439	-0.62
680.47	13.38
680.5	8.38
680.531	13.38
680.561	11.38
680.592	2.38
680.622	14.38
680.652	0.38
680.683	6.38
680.713	2.38
680.744	-5.62
680.774	-13.62
680.804	9.38
680.835	3.38
680.865	8.38
680.896	8.38
680.926	16.38
680.956	17.38
680.987	1.38
681.017	6.38
681.047	5.38
681.078	-10.62
681.108	3.38
681.139	-10.62
681.169	21.38
681.199	1.38
681.23	7.38
681.26	-2.62
681.29	2.38
681.321	-10.62
681.351	2.38
681.381	3.38
681.412	-0.62
681.442	-8.62
681.472	19.38
681.503	11.38
681.533	11.38
681.563	1.38
681.594	-12.62
681.624	3.38
681.654	-6.62
681.685	18.38
681.715	17.38
681.745	10.38
681.775	5.38
681.806	-2.62
681.836	-4.62
681.866	-15.62
681.897	1.38
681.927	-4.62
681.957	-8.62
681.987	-14.62
682.018	8.38
682.048	9.38
682.078	9.38
682.109	15.38
682.139	6.38
682.169	2.38
682.199	-17.62
682.23	0.38
682.26	5.38
682.29	-6.62
682.32	11.38
682.351	8.38
682.381	-4.62
682.411	-4.62
682.441	-20.62
682.472	-8.62
682.502	-0.62
682.532	-5.62
682.562	4.38
682.592	17.38
682.623	14.38
682.653	-1.62
682.683	-8.62
682.713	15.38
