Data from HighRes_H2D2_15_04_11_07_2024_HR4C61891__46__15-05-39-043.txt Node

Date: Thu Nov 07 15:05:39 EST 2024
User: crc00042
Spectrometer: HR4C6189
Trigger mode: 4
Integration Time (sec): 1.000000E-1
Scans to average: 1
Electric dark correction enabled: true
Nonlinearity correction enabled: false
Boxcar width: 0
XAxis mode: Wavelengths
Number of Pixels in Spectrum: 3648
>>>>>Begin Spectral Data<<<<<
639.567	-22.46
639.602	-22.46
639.636	-22.46
639.67	-41.46
639.704	-8.46
639.738	-0.46
639.773	2.54
639.807	-14.46
639.841	17.54
639.875	22.54
639.909	-23.46
639.943	-1.46
639.978	-5.46
640.012	-5.46
640.046	7.54
640.08	6.54
640.114	-7.46
640.148	1.54
640.182	-16.46
640.217	-4.46
640.251	3.54
640.285	4.54
640.319	-14.46
640.353	-1.46
640.387	-7.46
640.421	-4.46
640.455	5.54
640.49	-0.46
640.524	9.54
640.558	11.54
640.592	8.54
640.626	-3.46
640.66	5.54
640.694	-0.46
640.728	7.54
640.762	31.54
640.796	17.54
640.83	5.54
640.865	12.54
640.899	3.54
640.933	15.54
640.967	5.54
641.001	8.54
641.035	13.54
641.069	-5.46
641.103	-20.46
641.137	-8.46
641.171	-6.46
641.205	15.54
641.239	5.54
641.273	24.54
641.307	7.54
641.341	5.54
641.375	1.54
641.409	-6.46
641.443	-15.46
641.477	3.54
641.511	9.54
641.545	5.54
641.579	8.54
641.614	16.54
641.648	8.54
641.682	12.54
641.716	8.54
641.75	14.54
641.784	12.54
641.818	3.54
641.852	1.54
641.886	0.54
641.919	8.54
641.953	11.54
641.987	-21.46
642.021	7.54
642.055	10.54
642.089	8.54
642.123	-1.46
642.157	-0.46
642.191	-1.46
642.225	17.54
642.259	-0.46
642.293	3.54
642.327	8.54
642.361	1.54
642.395	6.54
642.429	20.54
642.463	15.54
642.497	19.54
642.531	10.54
642.565	2.54
642.599	-2.46
642.633	-6.46
642.666	17.54
642.7	10.54
642.734	9.54
642.768	-8.46
642.802	-0.46
642.836	5.54
642.87	3.54
642.904	7.54
642.938	9.54
642.972	-2.46
643.005	10.54
643.039	21.54
643.073	-1.46
643.107	12.54
643.141	3.54
643.175	-4.46
643.209	-4.46
643.243	-0.46
643.276	4.54
643.31	-13.46
643.344	9.54
643.378	-2.46
643.412	11.54
643.446	12.54
643.48	1.54
643.513	11.54
643.547	-7.46
643.581	-15.46
643.615	7.54
643.649	9.54
643.683	11.54
643.716	16.54
643.75	14.54
643.784	-7.46
643.818	10.54
643.852	-1.46
643.886	-1.46
643.919	-4.46
643.953	-2.46
643.987	-1.46
644.021	11.54
644.055	0.54
644.088	7.54
644.122	-0.46
644.156	2.54
644.19	12.54
644.224	-1.46
644.257	7.54
644.291	19.54
644.325	10.54
644.359	3.54
644.392	14.54
644.426	7.54
644.46	22.54
644.494	7.54
644.527	-4.46
644.561	-0.46
644.595	10.54
644.629	1.54
644.662	-19.46
644.696	23.54
644.73	11.54
644.764	-6.46
644.797	2.54
644.831	1.54
644.865	5.54
644.899	5.54
644.932	26.54
644.966	-11.46
645	10.54
645.033	18.54
645.067	15.54
645.101	5.54
645.135	-2.46
645.168	14.54
645.202	8.54
645.236	1.54
645.269	18.54
645.303	-5.46
645.337	-8.46
645.37	1.54
645.404	-3.46
645.438	4.54
645.471	0.54
645.505	8.54
645.539	1.54
645.572	-16.46
645.606	-20.46
645.64	10.54
645.673	14.54
645.707	24.54
645.741	0.54
645.774	-12.46
645.808	1.54
645.842	-5.46
645.875	15.54
645.909	13.54
645.943	-7.46
645.976	1.54
646.01	13.54
646.043	8.54
646.077	18.54
646.111	15.54
646.144	10.54
646.178	9.54
646.212	-19.46
646.245	-0.46
646.279	5.54
646.312	-2.46
646.346	-6.46
646.38	-6.46
646.413	0.54
646.447	10.54
646.48	6.54
646.514	13.54
646.547	-9.46
646.581	-6.46
646.615	-2.46
646.648	7.54
646.682	2.54
646.715	4.54
646.749	17.54
646.782	7.54
646.816	0.54
646.85	2.54
646.883	3.54
646.917	13.54
646.95	10.54
646.984	5.54
647.017	-1.46
647.051	-2.46
647.084	7.54
647.118	-1.46
647.151	2.54
647.185	13.54
647.218	-13.46
647.252	-0.46
647.285	-15.46
647.319	2.54
647.353	-8.46
647.386	6.54
647.42	-3.46
647.453	-2.46
647.487	5.54
647.52	-5.46
647.553	-2.46
647.587	-7.46
647.62	-4.46
647.654	8.54
647.687	22.54
647.721	12.54
647.754	8.54
647.788	-5.46
647.821	-4.46
647.855	1.54
647.888	22.54
647.922	20.54
647.955	15.54
647.989	9.54
648.022	16.54
648.055	17.54
648.089	-1.46
648.122	21.54
648.156	4.54
648.189	13.54
648.223	-7.46
648.256	38.54
648.29	19.54
648.323	-7.46
648.356	8.54
648.39	13.54
648.423	18.54
648.457	9.54
648.49	13.54
648.523	15.54
648.557	-4.46
648.59	9.54
648.624	24.54
648.657	10.54
648.69	19.54
648.724	0.54
648.757	12.54
648.791	20.54
648.824	-2.46
648.857	19.54
648.891	8.54
648.924	9.54
648.957	25.54
648.991	-4.46
649.024	18.54
649.057	7.54
649.091	0.54
649.124	31.54
649.158	16.54
649.191	24.54
649.224	12.54
649.258	4.54
649.291	13.54
649.324	-1.46
649.358	-0.46
649.391	15.54
649.424	9.54
649.458	-2.46
649.491	8.54
649.524	0.54
649.557	3.54
649.591	-9.46
649.624	16.54
649.657	-1.46
649.691	-12.46
649.724	-4.46
649.757	-1.46
649.791	4.54
649.824	19.54
649.857	23.54
649.89	12.54
649.924	-14.46
649.957	-10.46
649.99	-14.46
650.023	-10.46
650.057	8.54
650.09	-0.46
650.123	9.54
650.157	14.54
650.19	-0.46
650.223	-3.46
650.256	-1.46
650.29	5.54
650.323	9.54
650.356	11.54
650.389	-2.46
650.423	-22.46
650.456	-5.46
650.489	-1.46
650.522	0.54
650.555	16.54
650.589	5.54
650.622	7.54
650.655	15.54
650.688	0.54
650.721	10.54
650.755	14.54
650.788	14.54
650.821	5.54
650.854	-10.46
650.887	9.54
650.921	6.54
650.954	-3.46
650.987	4.54
651.02	17.54
651.053	-9.46
651.087	-4.46
651.12	0.54
651.153	12.54
651.186	-2.46
651.219	-7.46
651.252	21.54
651.286	6.54
651.319	-11.46
651.352	4.54
651.385	9.54
651.418	14.54
651.451	8.54
651.484	25.54
651.518	3.54
651.551	7.54
651.584	-2.46
651.617	33.54
651.65	20.54
651.683	17.54
651.716	2.54
651.749	1.54
651.783	-21.46
651.816	5.54
651.849	14.54
651.882	7.54
651.915	4.54
651.948	15.54
651.981	17.54
652.014	5.54
652.047	-8.46
652.08	8.54
652.114	7.54
652.147	-6.46
652.18	9.54
652.213	16.54
652.246	-7.46
652.279	3.54
652.312	16.54
652.345	12.54
652.378	0.54
652.411	30.54
652.444	13.54
652.477	-0.46
652.51	12.54
652.543	0.54
652.576	9.54
652.609	5.54
652.642	1.54
652.675	4.54
652.709	13.54
652.742	20.54
652.775	2.54
652.808	8.54
652.841	1.54
652.874	15.54
652.907	-4.46
652.94	-5.46
652.973	-6.46
653.006	-6.46
653.039	2.54
653.072	8.54
653.105	8.54
653.138	-3.46
653.171	3.54
653.204	18.54
653.237	18.54
653.27	5.54
653.303	-0.46
653.336	5.54
653.368	1.54
653.401	10.54
653.434	5.54
653.467	15.54
653.5	-14.46
653.533	-12.46
653.566	-2.46
653.599	-0.46
653.632	7.54
653.665	14.54
653.698	-0.46
653.731	-11.46
653.764	20.54
653.797	11.54
653.83	0.54
653.863	-3.46
653.896	-1.46
653.929	3.54
653.961	13.54
653.994	-3.46
654.027	-8.46
654.06	3.54
654.093	1.54
654.126	23.54
654.159	-6.46
654.192	27.54
654.225	13.54
654.258	-13.46
654.29	7.54
654.323	3.54
654.356	8.54
654.389	-5.46
654.422	0.54
654.455	13.54
654.488	18.54
654.521	-12.46
654.553	-4.46
654.586	4.54
654.619	11.54
654.652	-3.46
654.685	19.54
654.718	7.54
654.751	17.54
654.783	6.54
654.816	20.54
654.849	-14.46
654.882	0.54
654.915	-14.46
654.948	-0.46
654.98	-8.46
655.013	21.54
655.046	15.54
655.079	-0.46
655.112	4.54
655.144	-21.46
655.177	2.54
655.21	21.54
655.243	27.54
655.276	13.54
655.308	8.54
655.341	-3.46
655.374	14.54
655.407	-3.46
655.44	-1.46
655.472	-0.46
655.505	4.54
655.538	-2.46
655.571	19.54
655.603	6.54
655.636	8.54
655.669	21.54
655.702	10.54
655.734	-2.46
655.767	12.54
655.8	3.54
655.833	4.54
655.865	22.54
655.898	15.54
655.931	18.54
655.964	36.54
655.996	31.54
656.029	28.54
656.062	44.54
656.095	57.54
656.127	76.54
656.16	201.54
656.193	629.54
656.225	955.54
656.258	577.54
656.291	200.54
656.324	178.54
656.356	371.54
656.389	773.54
656.422	654.54
656.454	235.54
656.487	82.54
656.52	46.54
656.552	18.54
656.585	20.54
656.618	12.54
656.65	21.54
656.683	2.54
656.716	20.54
656.748	0.54
656.781	-1.46
656.814	-5.46
656.846	-1.46
656.879	-13.46
656.912	-0.46
656.944	-7.46
656.977	-18.46
657.01	-5.46
657.042	7.54
657.075	15.54
657.108	14.54
657.14	6.54
657.173	11.54
657.205	17.54
657.238	20.54
657.271	10.54
657.303	-19.46
657.336	4.54
657.369	14.54
657.401	4.54
657.434	16.54
657.466	12.54
657.499	18.54
657.532	-1.46
657.564	4.54
657.597	-4.46
657.629	4.54
657.662	4.54
657.694	7.54
657.727	2.54
657.76	11.54
657.792	-5.46
657.825	3.54
657.857	4.54
657.89	-0.46
657.922	13.54
657.955	0.54
657.987	-14.46
658.02	8.54
658.053	25.54
658.085	18.54
658.118	10.54
658.15	19.54
658.183	21.54
658.215	-4.46
658.248	-0.46
658.28	1.54
658.313	12.54
658.345	4.54
658.378	12.54
658.41	1.54
658.443	16.54
658.475	5.54
658.508	8.54
658.54	21.54
658.573	19.54
658.605	5.54
658.638	0.54
658.67	-2.46
658.703	0.54
658.735	-12.46
658.768	0.54
658.8	-5.46
658.833	8.54
658.865	7.54
658.898	-3.46
658.93	-5.46
658.963	3.54
658.995	-11.46
659.028	3.54
659.06	-8.46
659.092	9.54
659.125	-4.46
659.157	19.54
659.19	3.54
659.222	-2.46
659.255	16.54
659.287	17.54
659.32	-5.46
659.352	16.54
659.384	10.54
659.417	6.54
659.449	7.54
659.482	2.54
659.514	5.54
659.546	-24.46
659.579	-18.46
659.611	-0.46
659.644	4.54
659.676	-2.46
659.708	-13.46
659.741	-13.46
659.773	16.54
659.806	-0.46
659.838	4.54
659.87	-0.46
659.903	-1.46
659.935	-2.46
659.967	14.54
660	4.54
660.032	-4.46
660.065	16.54
660.097	-4.46
660.129	-2.46
660.162	-17.46
660.194	3.54
660.226	7.54
660.259	2.54
660.291	-15.46
660.323	4.54
660.356	9.54
660.388	-15.46
660.42	1.54
660.453	11.54
660.485	15.54
660.517	17.54
660.55	18.54
660.582	1.54
660.614	11.54
660.647	8.54
660.679	-22.46
660.711	7.54
660.743	3.54
660.776	-27.46
660.808	-1.46
660.84	-9.46
660.873	7.54
660.905	6.54
660.937	5.54
660.969	3.54
661.002	0.54
661.034	20.54
661.066	2.54
661.099	13.54
661.131	32.54
661.163	7.54
661.195	10.54
661.228	14.54
661.26	5.54
661.292	-8.46
661.324	12.54
661.357	-3.46
661.389	3.54
661.421	12.54
661.453	10.54
661.485	2.54
661.518	-0.46
661.55	-8.46
661.582	-15.46
661.614	-2.46
661.647	9.54
661.679	14.54
661.711	9.54
661.743	-16.46
661.775	7.54
661.808	34.54
661.84	-18.46
661.872	3.54
661.904	-7.46
661.936	-25.46
661.969	-3.46
662.001	-0.46
662.033	10.54
662.065	-0.46
662.097	28.54
662.129	20.54
662.162	5.54
662.194	0.54
662.226	1.54
662.258	-3.46
662.29	-10.46
662.322	-13.46
662.355	-13.46
662.387	12.54
662.419	4.54
662.451	3.54
662.483	-0.46
662.515	5.54
662.547	5.54
662.58	-6.46
662.612	-8.46
662.644	-14.46
662.676	-2.46
662.708	22.54
662.74	15.54
662.772	-0.46
662.804	11.54
662.836	-2.46
662.869	-3.46
662.901	3.54
662.933	-1.46
662.965	24.54
662.997	10.54
663.029	-10.46
663.061	3.54
663.093	-3.46
663.125	5.54
663.157	14.54
663.189	-8.46
663.221	13.54
663.254	14.54
663.286	18.54
663.318	-21.46
663.35	-4.46
663.382	1.54
663.414	2.54
663.446	-0.46
663.478	-7.46
663.51	32.54
663.542	-10.46
663.574	3.54
663.606	8.54
663.638	-22.46
663.67	-1.46
663.702	-1.46
663.734	-3.46
663.766	6.54
663.798	-22.46
663.83	7.54
663.862	11.54
663.894	19.54
663.926	14.54
663.958	21.54
663.99	-3.46
664.022	0.54
664.054	4.54
664.086	-12.46
664.118	-6.46
664.15	7.54
664.182	13.54
664.214	-12.46
664.246	12.54
664.278	8.54
664.31	16.54
664.342	10.54
664.374	10.54
664.406	-5.46
664.438	3.54
664.47	9.54
664.502	7.54
664.534	1.54
664.566	2.54
664.598	7.54
664.63	7.54
664.662	3.54
664.693	1.54
664.725	-5.46
664.757	-1.46
664.789	8.54
664.821	-8.46
664.853	7.54
664.885	23.54
664.917	16.54
664.949	25.54
664.981	33.54
665.013	6.54
665.045	-9.46
665.076	-1.46
665.108	-0.46
665.14	-3.46
665.172	-3.46
665.204	-4.46
665.236	-7.46
665.268	10.54
665.3	0.54
665.331	-14.46
665.363	-0.46
665.395	1.54
665.427	-8.46
665.459	16.54
665.491	10.54
665.523	5.54
665.555	-0.46
665.586	-5.46
665.618	-11.46
665.65	-2.46
665.682	7.54
665.714	18.54
665.746	-19.46
665.777	2.54
665.809	-0.46
665.841	5.54
665.873	10.54
665.905	10.54
665.937	0.54
665.968	-5.46
666	-15.46
666.032	16.54
666.064	-0.46
666.096	3.54
666.127	20.54
666.159	6.54
666.191	16.54
666.223	18.54
666.255	1.54
666.286	6.54
666.318	11.54
666.35	22.54
666.382	12.54
666.413	-6.46
666.445	-14.46
666.477	-8.46
666.509	-11.46
666.54	9.54
666.572	5.54
666.604	-4.46
666.636	4.54
666.667	21.54
666.699	24.54
666.731	6.54
666.763	6.54
666.794	-1.46
666.826	0.54
666.858	-6.46
666.89	20.54
666.921	10.54
666.953	4.54
666.985	6.54
667.017	15.54
667.048	9.54
667.08	-5.46
667.112	-4.46
667.143	-2.46
667.175	5.54
667.207	-6.46
667.238	8.54
667.27	-1.46
667.302	0.54
667.334	7.54
667.365	15.54
667.397	8.54
667.429	-6.46
667.46	25.54
667.492	2.54
667.524	0.54
667.555	-1.46
667.587	3.54
667.619	-9.46
667.65	-5.46
667.682	4.54
667.714	9.54
667.745	4.54
667.777	7.54
667.808	9.54
667.84	8.54
667.872	8.54
667.903	16.54
667.935	2.54
667.967	-11.46
667.998	0.54
668.03	15.54
668.061	11.54
668.093	3.54
668.125	12.54
668.156	12.54
668.188	7.54
668.22	-5.46
668.251	-2.46
668.283	8.54
668.314	20.54
668.346	-0.46
668.377	-4.46
668.409	3.54
668.441	23.54
668.472	15.54
668.504	25.54
668.535	11.54
668.567	9.54
668.599	1.54
668.63	-0.46
668.662	-3.46
668.693	11.54
668.725	0.54
668.756	15.54
668.788	-2.46
668.819	4.54
668.851	16.54
668.882	4.54
668.914	-7.46
668.946	-0.46
668.977	-0.46
669.009	-14.46
669.04	-8.46
669.072	5.54
669.103	-7.46
669.135	3.54
669.166	1.54
669.198	12.54
669.229	6.54
669.261	15.54
669.292	-4.46
669.324	4.54
669.355	0.54
669.387	-15.46
669.418	14.54
669.45	-1.46
669.481	19.54
669.513	7.54
669.544	16.54
669.576	8.54
669.607	8.54
669.639	18.54
669.67	3.54
669.701	20.54
669.733	-6.46
669.764	0.54
669.796	4.54
669.827	-2.46
669.859	3.54
669.89	8.54
669.922	12.54
669.953	11.54
669.985	16.54
670.016	7.54
670.047	-8.46
670.079	-18.46
670.11	0.54
670.142	-1.46
670.173	4.54
670.204	8.54
670.236	4.54
670.267	-7.46
670.299	6.54
670.33	2.54
670.362	-0.46
670.393	0.54
670.424	18.54
670.456	-3.46
670.487	6.54
670.518	1.54
670.55	23.54
670.581	10.54
670.613	9.54
670.644	7.54
670.675	-4.46
670.707	5.54
670.738	6.54
670.769	8.54
670.801	-10.46
670.832	5.54
670.864	-7.46
670.895	7.54
670.926	11.54
670.958	2.54
670.989	-3.46
671.02	6.54
671.052	-0.46
671.083	4.54
671.114	-2.46
671.146	3.54
671.177	-13.46
671.208	-6.46
671.24	-13.46
671.271	-0.46
671.302	5.54
671.333	7.54
671.365	10.54
671.396	-1.46
671.427	15.54
671.459	11.54
671.49	6.54
671.521	14.54
671.553	12.54
671.584	17.54
671.615	-16.46
671.646	7.54
671.678	16.54
671.709	2.54
671.74	-4.46
671.771	12.54
671.803	10.54
671.834	-2.46
671.865	-8.46
671.896	1.54
671.928	6.54
671.959	-1.46
671.99	-4.46
672.021	-0.46
672.053	6.54
672.084	7.54
672.115	8.54
672.146	-2.46
672.178	-8.46
672.209	0.54
672.24	11.54
672.271	45.54
672.303	12.54
672.334	3.54
672.365	-8.46
672.396	-1.46
672.427	11.54
672.459	11.54
672.49	27.54
672.521	6.54
672.552	13.54
672.583	8.54
672.615	-4.46
672.646	25.54
672.677	9.54
672.708	1.54
672.739	3.54
672.77	7.54
672.802	3.54
672.833	1.54
672.864	7.54
672.895	2.54
672.926	-0.46
672.957	0.54
672.989	-8.46
673.02	19.54
673.051	0.54
673.082	12.54
673.113	19.54
673.144	3.54
673.175	7.54
673.206	-7.46
673.238	3.54
673.269	7.54
673.3	-1.46
673.331	7.54
673.362	8.54
673.393	19.54
673.424	14.54
673.455	31.54
673.487	5.54
673.518	12.54
673.549	8.54
673.58	11.54
673.611	17.54
673.642	11.54
673.673	-11.46
673.704	9.54
673.735	2.54
673.766	-1.46
673.797	-4.46
673.828	6.54
673.86	-12.46
673.891	-1.46
673.922	6.54
673.953	1.54
673.984	2.54
674.015	14.54
674.046	-3.46
674.077	5.54
674.108	5.54
674.139	5.54
674.17	-5.46
674.201	-3.46
674.232	2.54
674.263	-1.46
674.294	13.54
674.325	-11.46
674.356	3.54
674.387	10.54
674.418	2.54
674.449	16.54
674.48	-1.46
674.511	8.54
674.542	10.54
674.573	8.54
674.604	29.54
674.635	4.54
674.666	20.54
674.697	-13.46
674.728	-13.46
674.759	10.54
674.79	3.54
674.821	-2.46
674.852	15.54
674.883	7.54
674.914	16.54
674.945	13.54
674.976	15.54
675.007	3.54
675.038	1.54
675.069	-5.46
675.1	6.54
675.131	7.54
675.162	-13.46
675.193	-8.46
675.224	7.54
675.254	9.54
675.285	12.54
675.316	23.54
675.347	15.54
675.378	3.54
675.409	0.54
675.44	20.54
675.471	21.54
675.502	1.54
675.533	18.54
675.564	15.54
675.595	0.54
675.625	28.54
675.656	14.54
675.687	10.54
675.718	-0.46
675.749	5.54
675.78	21.54
675.811	-14.46
675.842	8.54
675.873	-2.46
675.903	6.54
675.934	-4.46
675.965	2.54
675.996	-2.46
676.027	6.54
676.058	-1.46
676.089	-6.46
676.119	11.54
676.15	3.54
676.181	5.54
676.212	3.54
676.243	17.54
676.274	8.54
676.304	12.54
676.335	-1.46
676.366	6.54
676.397	8.54
676.428	11.54
676.459	14.54
676.489	12.54
676.52	-2.46
676.551	17.54
676.582	-0.46
676.613	1.54
676.643	-11.46
676.674	11.54
676.705	-4.46
676.736	18.54
676.767	33.54
676.797	16.54
676.828	5.54
676.859	12.54
676.89	9.54
676.92	7.54
676.951	15.54
676.982	0.54
677.013	0.54
677.044	16.54
677.074	-2.46
677.105	-12.46
677.136	12.54
677.167	-4.46
677.197	0.54
677.228	2.54
677.259	-1.46
677.289	4.54
677.32	-11.46
677.351	-4.46
677.382	7.54
677.412	-5.46
677.443	13.54
677.474	7.54
677.505	2.54
677.535	12.54
677.566	11.54
677.597	-2.46
677.627	-0.46
677.658	1.54
677.689	14.54
677.72	12.54
677.75	-13.46
677.781	2.54
677.812	-5.46
677.842	-1.46
677.873	15.54
677.904	10.54
677.934	8.54
677.965	5.54
677.996	-11.46
678.026	2.54
678.057	6.54
678.088	-15.46
678.118	2.54
678.149	6.54
678.18	-1.46
678.21	-7.46
678.241	20.54
678.272	9.54
678.302	8.54
678.333	0.54
678.363	4.54
678.394	-7.46
678.425	-2.46
678.455	13.54
678.486	10.54
678.517	1.54
678.547	13.54
678.578	-2.46
678.608	-5.46
678.639	18.54
678.67	4.54
678.7	-6.46
678.731	-16.46
678.761	7.54
678.792	9.54
678.823	11.54
678.853	-7.46
678.884	-16.46
678.914	-9.46
678.945	0.54
678.975	-12.46
679.006	7.54
679.037	2.54
679.067	23.54
679.098	14.54
679.128	2.54
679.159	0.54
679.189	9.54
679.22	-19.46
679.25	7.54
679.281	1.54
679.312	16.54
679.342	6.54
679.373	29.54
679.403	7.54
679.434	-0.46
679.464	2.54
679.495	7.54
679.525	-0.46
679.556	15.54
679.586	11.54
679.617	-8.46
679.647	14.54
679.678	12.54
679.708	6.54
679.739	-8.46
679.769	7.54
679.8	6.54
679.83	8.54
679.861	13.54
679.891	-12.46
679.922	-6.46
679.952	-10.46
679.983	8.54
680.013	2.54
680.044	0.54
680.074	19.54
680.105	9.54
680.135	3.54
680.165	2.54
680.196	11.54
680.226	11.54
680.257	1.54
680.287	15.54
680.318	3.54
680.348	-5.46
680.379	21.54
680.409	9.54
680.439	-9.46
680.47	-11.46
680.5	6.54
680.531	3.54
680.561	10.54
680.592	11.54
680.622	14.54
680.652	-0.46
680.683	15.54
680.713	-8.46
680.744	3.54
680.774	-20.46
680.804	14.54
680.835	5.54
680.865	0.54
680.896	27.54
680.926	23.54
680.956	9.54
680.987	9.54
681.017	-5.46
681.047	-4.46
681.078	-0.46
681.108	10.54
681.139	5.54
681.169	-7.46
681.199	-3.46
681.23	31.54
681.26	-3.46
681.29	10.54
681.321	8.54
681.351	0.54
681.381	-4.46
681.412	-8.46
681.442	-1.46
681.472	4.54
681.503	9.54
681.533	13.54
681.563	-1.46
681.594	-5.46
681.624	7.54
681.654	6.54
681.685	-6.46
681.715	2.54
681.745	3.54
681.775	-15.46
681.806	4.54
681.836	14.54
681.866	-1.46
681.897	-1.46
681.927	-15.46
681.957	-15.46
681.987	9.54
682.018	5.54
682.048	8.54
682.078	15.54
682.109	23.54
682.139	13.54
682.169	19.54
682.199	7.54
682.23	3.54
682.26	6.54
682.29	-1.46
682.32	10.54
682.351	4.54
682.381	4.54
682.411	8.54
682.441	-13.46
682.472	-0.46
682.502	7.54
682.532	-4.46
682.562	18.54
682.592	15.54
682.623	8.54
682.653	3.54
682.683	-14.46
682.713	-9.46
682.743	5.54
