Data from HighRes_H2D2_15_04_11_07_2024_HR4C61891__76__15-05-42-042.txt Node

Date: Thu Nov 07 15:05:42 EST 2024
User: crc00042
Spectrometer: HR4C6189
Trigger mode: 4
Integration Time (sec): 1.000000E-1
Scans to average: 1
Electric dark correction enabled: true
Nonlinearity correction enabled: false
Boxcar width: 0
XAxis mode: Wavelengths
Number of Pixels in Spectrum: 3648
>>>>>Begin Spectral Data<<<<<
639.567	-80.38
639.602	-80.38
639.636	-80.38
639.67	-62.38
639.704	-26.38
639.738	-9.38
639.773	-0.38
639.807	-30.38
639.841	-2.38
639.875	8.62
639.909	6.62
639.943	-13.38
639.978	2.62
640.012	9.62
640.046	8.62
640.08	2.62
640.114	13.62
640.148	3.62
640.182	-0.38
640.217	-21.38
640.251	-11.38
640.285	-4.38
640.319	-8.38
640.353	-15.38
640.387	9.62
640.421	7.62
640.455	-14.38
640.49	-1.38
640.524	5.62
640.558	-6.38
640.592	17.62
640.626	-2.38
640.66	-3.38
640.694	-8.38
640.728	-6.38
640.762	5.62
640.796	4.62
640.83	0.62
640.865	7.62
640.899	5.62
640.933	-12.38
640.967	-11.38
641.001	-17.38
641.035	-3.38
641.069	9.62
641.103	-7.38
641.137	-10.38
641.171	-4.38
641.205	-6.38
641.239	4.62
641.273	18.62
641.307	7.62
641.341	-6.38
641.375	-1.38
641.409	-8.38
641.443	-4.38
641.477	6.62
641.511	6.62
641.545	4.62
641.579	0.62
641.614	14.62
641.648	3.62
641.682	-7.38
641.716	5.62
641.75	12.62
641.784	5.62
641.818	-9.38
641.852	5.62
641.886	-3.38
641.919	17.62
641.953	0.62
641.987	-14.38
642.021	-2.38
642.055	-11.38
642.089	2.62
642.123	-13.38
642.157	-17.38
642.191	-14.38
642.225	-3.38
642.259	-14.38
642.293	0.62
642.327	2.62
642.361	-7.38
642.395	8.62
642.429	11.62
642.463	1.62
642.497	22.62
642.531	3.62
642.565	-3.38
642.599	8.62
642.633	-21.38
642.666	9.62
642.7	-1.38
642.734	13.62
642.768	-4.38
642.802	4.62
642.836	6.62
642.87	10.62
642.904	-5.38
642.938	8.62
642.972	-10.38
643.005	5.62
643.039	27.62
643.073	-5.38
643.107	-0.38
643.141	-2.38
643.175	-0.38
643.209	-16.38
643.243	-18.38
643.276	9.62
643.31	-11.38
643.344	-3.38
643.378	8.62
643.412	8.62
643.446	-13.38
643.48	-15.38
643.513	6.62
643.547	6.62
643.581	-2.38
643.615	6.62
643.649	-4.38
643.683	-7.38
643.716	0.62
643.75	12.62
643.784	-9.38
643.818	-8.38
643.852	-20.38
643.886	-18.38
643.919	15.62
643.953	-13.38
643.987	-8.38
644.021	0.62
644.055	6.62
644.088	0.62
644.122	-9.38
644.156	-7.38
644.19	-0.38
644.224	-2.38
644.257	2.62
644.291	0.62
644.325	8.62
644.359	-22.38
644.392	11.62
644.426	10.62
644.46	8.62
644.494	-3.38
644.527	6.62
644.561	-14.38
644.595	6.62
644.629	-18.38
644.662	-23.38
644.696	10.62
644.73	-11.38
644.764	-0.38
644.797	-11.38
644.831	8.62
644.865	6.62
644.899	-3.38
644.932	18.62
644.966	-0.38
645	0.62
645.033	0.62
645.067	-7.38
645.101	10.62
645.135	-4.38
645.168	-8.38
645.202	-15.38
645.236	-12.38
645.269	2.62
645.303	-3.38
645.337	-6.38
645.37	-6.38
645.404	-9.38
645.438	-3.38
645.471	-5.38
645.505	1.62
645.539	-6.38
645.572	-7.38
645.606	-19.38
645.64	8.62
645.673	4.62
645.707	5.62
645.741	1.62
645.774	-5.38
645.808	-0.38
645.842	-10.38
645.875	-4.38
645.909	-7.38
645.943	-2.38
645.976	2.62
646.01	-21.38
646.043	11.62
646.077	7.62
646.111	5.62
646.144	19.62
646.178	15.62
646.212	-7.38
646.245	-7.38
646.279	-8.38
646.312	7.62
646.346	-2.38
646.38	-3.38
646.413	6.62
646.447	-4.38
646.48	-5.38
646.514	6.62
646.547	-5.38
646.581	-7.38
646.615	5.62
646.648	-6.38
646.682	-6.38
646.715	-11.38
646.749	-6.38
646.782	-11.38
646.816	-22.38
646.85	-10.38
646.883	-13.38
646.917	-7.38
646.95	15.62
646.984	1.62
647.017	-4.38
647.051	-3.38
647.084	3.62
647.118	-4.38
647.151	-11.38
647.185	0.62
647.218	-8.38
647.252	-11.38
647.285	-15.38
647.319	2.62
647.353	10.62
647.386	14.62
647.42	-1.38
647.453	-13.38
647.487	0.62
647.52	-5.38
647.553	2.62
647.587	-7.38
647.62	-7.38
647.654	-7.38
647.687	3.62
647.721	-0.38
647.754	-7.38
647.788	-11.38
647.821	-5.38
647.855	9.62
647.888	12.62
647.922	1.62
647.955	0.62
647.989	-12.38
648.022	-4.38
648.055	1.62
648.089	-16.38
648.122	9.62
648.156	-4.38
648.189	4.62
648.223	0.62
648.256	19.62
648.29	9.62
648.323	10.62
648.356	4.62
648.39	-3.38
648.423	-1.38
648.457	1.62
648.49	3.62
648.523	2.62
648.557	-10.38
648.59	-15.38
648.624	-5.38
648.657	-7.38
648.69	-6.38
648.724	-11.38
648.757	-0.38
648.791	0.62
648.824	5.62
648.857	12.62
648.891	-3.38
648.924	7.62
648.957	25.62
648.991	-16.38
649.024	-1.38
649.057	-11.38
649.091	-6.38
649.124	4.62
649.158	6.62
649.191	12.62
649.224	7.62
649.258	19.62
649.291	18.62
649.324	1.62
649.358	-9.38
649.391	-2.38
649.424	2.62
649.458	-2.38
649.491	0.62
649.524	-17.38
649.557	-11.38
649.591	-17.38
649.624	5.62
649.657	-4.38
649.691	5.62
649.724	-2.38
649.757	-6.38
649.791	1.62
649.824	27.62
649.857	-1.38
649.89	1.62
649.924	-7.38
649.957	-4.38
649.99	-22.38
650.023	0.62
650.057	-4.38
650.09	4.62
650.123	-14.38
650.157	3.62
650.19	8.62
650.223	-2.38
650.256	-4.38
650.29	-0.38
650.323	17.62
650.356	11.62
650.389	-6.38
650.423	-8.38
650.456	-4.38
650.489	-10.38
650.522	-0.38
650.555	14.62
650.589	12.62
650.622	10.62
650.655	22.62
650.688	-6.38
650.721	-7.38
650.755	0.62
650.788	8.62
650.821	-20.38
650.854	-0.38
650.887	-1.38
650.921	1.62
650.954	-12.38
650.987	-7.38
651.02	-1.38
651.053	-25.38
651.087	-16.38
651.12	8.62
651.153	8.62
651.186	-10.38
651.219	-8.38
651.252	2.62
651.286	4.62
651.319	0.62
651.352	-8.38
651.385	7.62
651.418	-2.38
651.451	6.62
651.484	1.62
651.518	-17.38
651.551	14.62
651.584	-12.38
651.617	8.62
651.65	5.62
651.683	8.62
651.716	-16.38
651.749	-9.38
651.783	8.62
651.816	-2.38
651.849	3.62
651.882	-7.38
651.915	-25.38
651.948	12.62
651.981	-10.38
652.014	-29.38
652.047	-14.38
652.08	-12.38
652.114	0.62
652.147	-3.38
652.18	-0.38
652.213	16.62
652.246	-3.38
652.279	-19.38
652.312	1.62
652.345	-0.38
652.378	-0.38
652.411	22.62
652.444	14.62
652.477	0.62
652.51	-5.38
652.543	-22.38
652.576	-4.38
652.609	-9.38
652.642	3.62
652.675	2.62
652.709	-12.38
652.742	-16.38
652.775	4.62
652.808	19.62
652.841	9.62
652.874	12.62
652.907	-17.38
652.94	-7.38
652.973	-2.38
653.006	-7.38
653.039	-4.38
653.072	4.62
653.105	-15.38
653.138	-14.38
653.171	-4.38
653.204	-8.38
653.237	2.62
653.27	1.62
653.303	1.62
653.336	9.62
653.368	-20.38
653.401	-2.38
653.434	-21.38
653.467	-0.38
653.5	-8.38
653.533	-11.38
653.566	-14.38
653.599	2.62
653.632	4.62
653.665	17.62
653.698	-10.38
653.731	-9.38
653.764	-0.38
653.797	4.62
653.83	7.62
653.863	1.62
653.896	-0.38
653.929	-8.38
653.961	3.62
653.994	5.62
654.027	-13.38
654.06	-1.38
654.093	4.62
654.126	-7.38
654.159	-5.38
654.192	-6.38
654.225	3.62
654.258	2.62
654.29	0.62
654.323	14.62
654.356	16.62
654.389	0.62
654.422	-2.38
654.455	9.62
654.488	-17.38
654.521	-30.38
654.553	-4.38
654.586	-0.38
654.619	-12.38
654.652	4.62
654.685	12.62
654.718	-0.38
654.751	9.62
654.783	3.62
654.816	1.62
654.849	2.62
654.882	-16.38
654.915	-15.38
654.948	-6.38
654.98	0.62
655.013	-3.38
655.046	-23.38
655.079	-13.38
655.112	1.62
655.144	-28.38
655.177	-2.38
655.21	16.62
655.243	13.62
655.276	8.62
655.308	-7.38
655.341	-27.38
655.374	-9.38
655.407	1.62
655.44	-11.38
655.472	6.62
655.505	-2.38
655.538	12.62
655.571	19.62
655.603	12.62
655.636	-10.38
655.669	6.62
655.702	-0.38
655.734	0.62
655.767	-5.38
655.8	15.62
655.833	4.62
655.865	16.62
655.898	5.62
655.931	19.62
655.964	14.62
655.996	1.62
656.029	19.62
656.062	13.62
656.095	33.62
656.127	86.62
656.16	209.62
656.193	599.62
656.225	933.62
656.258	562.62
656.291	226.62
656.324	169.62
656.356	361.62
656.389	782.62
656.422	657.62
656.454	218.62
656.487	79.62
656.52	38.62
656.552	7.62
656.585	6.62
656.618	5.62
656.65	14.62
656.683	4.62
656.716	4.62
656.748	-0.38
656.781	-13.38
656.814	-11.38
656.846	6.62
656.879	-21.38
656.912	-10.38
656.944	-15.38
656.977	-2.38
657.01	-1.38
657.042	13.62
657.075	1.62
657.108	-5.38
657.14	12.62
657.173	8.62
657.205	22.62
657.238	5.62
657.271	-4.38
657.303	-19.38
657.336	-7.38
657.369	2.62
657.401	-6.38
657.434	-2.38
657.466	19.62
657.499	-3.38
657.532	-0.38
657.564	1.62
657.597	-0.38
657.629	1.62
657.662	2.62
657.694	1.62
657.727	-8.38
657.76	3.62
657.792	-9.38
657.825	0.62
657.857	-4.38
657.89	4.62
657.922	7.62
657.955	-15.38
657.987	-4.38
658.02	15.62
658.053	20.62
658.085	0.62
658.118	2.62
658.15	5.62
658.183	15.62
658.215	10.62
658.248	-5.38
658.28	-9.38
658.313	15.62
658.345	1.62
658.378	-8.38
658.41	-15.38
658.443	12.62
658.475	2.62
658.508	-10.38
658.54	-3.38
658.573	-18.38
658.605	7.62
658.638	2.62
658.67	-9.38
658.703	3.62
658.735	-4.38
658.768	9.62
658.8	-10.38
658.833	6.62
658.865	0.62
658.898	-9.38
658.93	-9.38
658.963	2.62
658.995	-20.38
659.028	17.62
659.06	-1.38
659.092	-11.38
659.125	3.62
659.157	-0.38
659.19	-0.38
659.222	-18.38
659.255	-0.38
659.287	-3.38
659.32	-11.38
659.352	2.62
659.384	3.62
659.417	-0.38
659.449	-3.38
659.482	8.62
659.514	-24.38
659.546	-4.38
659.579	-9.38
659.611	3.62
659.644	-11.38
659.676	-20.38
659.708	6.62
659.741	0.62
659.773	10.62
659.806	5.62
659.838	12.62
659.87	4.62
659.903	-14.38
659.935	-5.38
659.967	-9.38
660	4.62
660.032	-20.38
660.065	7.62
660.097	4.62
660.129	1.62
660.162	-15.38
660.194	16.62
660.226	7.62
660.259	22.62
660.291	-7.38
660.323	-11.38
660.356	7.62
660.388	-7.38
660.42	-10.38
660.453	0.62
660.485	5.62
660.517	14.62
660.55	2.62
660.582	-6.38
660.614	-5.38
660.647	-10.38
660.679	2.62
660.711	-1.38
660.743	-6.38
660.776	-7.38
660.808	1.62
660.84	-10.38
660.873	-4.38
660.905	2.62
660.937	9.62
660.969	4.62
661.002	-12.38
661.034	4.62
661.066	-10.38
661.099	12.62
661.131	-8.38
661.163	-6.38
661.195	-13.38
661.228	19.62
661.26	-8.38
661.292	-5.38
661.324	-22.38
661.357	-13.38
661.389	3.62
661.421	7.62
661.453	-6.38
661.485	-5.38
661.518	-3.38
661.55	-29.38
661.582	-12.38
661.614	-10.38
661.647	-7.38
661.679	-0.38
661.711	8.62
661.743	-7.38
661.775	0.62
661.808	17.62
661.84	-4.38
661.872	2.62
661.904	7.62
661.936	0.62
661.969	-3.38
662.001	-7.38
662.033	4.62
662.065	3.62
662.097	7.62
662.129	4.62
662.162	-23.38
662.194	-14.38
662.226	-3.38
662.258	-2.38
662.29	5.62
662.322	-32.38
662.355	-12.38
662.387	7.62
662.419	1.62
662.451	-3.38
662.483	13.62
662.515	0.62
662.547	0.62
662.58	-7.38
662.612	-12.38
662.644	-21.38
662.676	-8.38
662.708	-5.38
662.74	-13.38
662.772	-4.38
662.804	-16.38
662.836	1.62
662.869	-4.38
662.901	14.62
662.933	-14.38
662.965	8.62
662.997	1.62
663.029	-21.38
663.061	-17.38
663.093	-9.38
663.125	6.62
663.157	1.62
663.189	5.62
663.221	1.62
663.254	-18.38
663.286	12.62
663.318	-3.38
663.35	-10.38
663.382	0.62
663.414	16.62
663.446	19.62
663.478	-1.38
663.51	0.62
663.542	-9.38
663.574	-13.38
663.606	13.62
663.638	-9.38
663.67	-13.38
663.702	-20.38
663.734	3.62
663.766	13.62
663.798	-9.38
663.83	3.62
663.862	8.62
663.894	5.62
663.926	2.62
663.958	13.62
663.99	-10.38
664.022	-26.38
664.054	2.62
664.086	-15.38
664.118	-3.38
664.15	-5.38
664.182	-0.38
664.214	-11.38
664.246	-1.38
664.278	12.62
664.31	23.62
664.342	7.62
664.374	-5.38
664.406	-8.38
664.438	-6.38
664.47	17.62
664.502	-5.38
664.534	0.62
664.566	-22.38
664.598	2.62
664.63	-7.38
664.662	-3.38
664.693	-5.38
664.725	-6.38
664.757	-18.38
664.789	-9.38
664.821	-0.38
664.853	8.62
664.885	-6.38
664.917	-15.38
664.949	8.62
664.981	11.62
665.013	5.62
665.045	-30.38
665.076	-15.38
665.108	-7.38
665.14	-7.38
665.172	0.62
665.204	-4.38
665.236	5.62
665.268	16.62
665.3	-0.38
665.331	-25.38
665.363	-2.38
665.395	-3.38
665.427	-1.38
665.459	13.62
665.491	-11.38
665.523	7.62
665.555	-3.38
665.586	0.62
665.618	-15.38
665.65	-9.38
665.682	2.62
665.714	0.62
665.746	11.62
665.777	12.62
665.809	-4.38
665.841	5.62
665.873	5.62
665.905	-5.38
665.937	0.62
665.968	8.62
666	16.62
666.032	9.62
666.064	0.62
666.096	1.62
666.127	9.62
666.159	15.62
666.191	10.62
666.223	-1.38
666.255	3.62
666.286	4.62
666.318	-2.38
666.35	3.62
666.382	4.62
666.413	-15.38
666.445	-16.38
666.477	-14.38
666.509	-2.38
666.54	-8.38
666.572	-16.38
666.604	-14.38
666.636	4.62
666.667	5.62
666.699	0.62
666.731	8.62
666.763	8.62
666.794	2.62
666.826	4.62
666.858	-3.38
666.89	6.62
666.921	-5.38
666.953	0.62
666.985	2.62
667.017	6.62
667.048	3.62
667.08	0.62
667.112	-5.38
667.143	-4.38
667.175	-7.38
667.207	1.62
667.238	5.62
667.27	-4.38
667.302	4.62
667.334	-1.38
667.365	19.62
667.397	-3.38
667.429	-22.38
667.46	7.62
667.492	-6.38
667.524	-3.38
667.555	-9.38
667.587	-4.38
667.619	-2.38
667.65	8.62
667.682	3.62
667.714	6.62
667.745	-25.38
667.777	-16.38
667.808	2.62
667.84	-6.38
667.872	6.62
667.903	12.62
667.935	-12.38
667.967	-11.38
667.998	1.62
668.03	0.62
668.061	0.62
668.093	7.62
668.125	12.62
668.156	-6.38
668.188	4.62
668.22	0.62
668.251	10.62
668.283	4.62
668.314	11.62
668.346	-15.38
668.377	10.62
668.409	-12.38
668.441	5.62
668.472	13.62
668.504	8.62
668.535	20.62
668.567	8.62
668.599	8.62
668.63	-2.38
668.662	-4.38
668.693	17.62
668.725	4.62
668.756	8.62
668.788	3.62
668.819	4.62
668.851	-7.38
668.882	6.62
668.914	10.62
668.946	2.62
668.977	1.62
669.009	-4.38
669.04	-13.38
669.072	4.62
669.103	2.62
669.135	-9.38
669.166	-4.38
669.198	-6.38
669.229	-4.38
669.261	-4.38
669.292	2.62
669.324	7.62
669.355	9.62
669.387	-4.38
669.418	-1.38
669.45	-14.38
669.481	21.62
669.513	4.62
669.544	8.62
669.576	2.62
669.607	23.62
669.639	1.62
669.67	-11.38
669.701	12.62
669.733	-5.38
669.764	1.62
669.796	0.62
669.827	-16.38
669.859	-3.38
669.89	6.62
669.922	-7.38
669.953	5.62
669.985	13.62
670.016	1.62
670.047	-6.38
670.079	-2.38
670.11	-5.38
670.142	-15.38
670.173	-7.38
670.204	0.62
670.236	-0.38
670.267	-2.38
670.299	6.62
670.33	-1.38
670.362	7.62
670.393	-4.38
670.424	4.62
670.456	-0.38
670.487	-17.38
670.518	-6.38
670.55	-10.38
670.581	-3.38
670.613	7.62
670.644	5.62
670.675	-19.38
670.707	-8.38
670.738	7.62
670.769	0.62
670.801	0.62
670.832	6.62
670.864	-11.38
670.895	15.62
670.926	8.62
670.958	-2.38
670.989	-4.38
671.02	-12.38
671.052	1.62
671.083	-7.38
671.114	-6.38
671.146	-4.38
671.177	-3.38
671.208	-15.38
671.24	-10.38
671.271	9.62
671.302	1.62
671.333	-7.38
671.365	-14.38
671.396	-17.38
671.427	-11.38
671.459	-2.38
671.49	10.62
671.521	10.62
671.553	12.62
671.584	-10.38
671.615	-11.38
671.646	0.62
671.678	-6.38
671.709	-13.38
671.74	-13.38
671.771	-18.38
671.803	-12.38
671.834	8.62
671.865	6.62
671.896	5.62
671.928	-14.38
671.959	2.62
671.99	-10.38
672.021	1.62
672.053	-3.38
672.084	-0.38
672.115	0.62
672.146	-10.38
672.178	-13.38
672.209	-15.38
672.24	-7.38
672.271	14.62
672.303	8.62
672.334	0.62
672.365	-1.38
672.396	11.62
672.427	-7.38
672.459	6.62
672.49	19.62
672.521	-8.38
672.552	-8.38
672.583	-12.38
672.615	-0.38
672.646	4.62
672.677	1.62
672.708	3.62
672.739	8.62
672.77	0.62
672.802	5.62
672.833	-8.38
672.864	4.62
672.895	3.62
672.926	-10.38
672.957	-1.38
672.989	5.62
673.02	3.62
673.051	-21.38
673.082	11.62
673.113	8.62
673.144	11.62
673.175	-6.38
673.206	-5.38
673.238	-0.38
673.269	-4.38
673.3	-14.38
673.331	3.62
673.362	4.62
673.393	1.62
673.424	10.62
673.455	11.62
673.487	4.62
673.518	8.62
673.549	6.62
673.58	-17.38
673.611	-5.38
673.642	-10.38
673.673	-31.38
673.704	-27.38
673.735	-13.38
673.766	-11.38
673.797	-8.38
673.828	1.62
673.86	-4.38
673.891	-19.38
673.922	-9.38
673.953	-14.38
673.984	-9.38
674.015	-8.38
674.046	-5.38
674.077	-3.38
674.108	-11.38
674.139	-15.38
674.17	-13.38
674.201	-10.38
674.232	-14.38
674.263	-7.38
674.294	-5.38
674.325	-14.38
674.356	3.62
674.387	7.62
674.418	3.62
674.449	-12.38
674.48	-13.38
674.511	-1.38
674.542	4.62
674.573	-12.38
674.604	1.62
674.635	3.62
674.666	-0.38
674.697	-7.38
674.728	-4.38
674.759	-3.38
674.79	-7.38
674.821	-6.38
674.852	-4.38
674.883	-14.38
674.914	-0.38
674.945	-3.38
674.976	-7.38
675.007	0.62
675.038	-16.38
675.069	-9.38
675.1	-16.38
675.131	-4.38
675.162	-11.38
675.193	-8.38
675.224	-11.38
675.254	-7.38
675.285	-5.38
675.316	2.62
675.347	-2.38
675.378	-8.38
675.409	-18.38
675.44	14.62
675.471	-4.38
675.502	2.62
675.533	0.62
675.564	-7.38
675.595	0.62
675.625	8.62
675.656	6.62
675.687	7.62
675.718	-3.38
675.749	3.62
675.78	6.62
675.811	-10.38
675.842	-4.38
675.873	5.62
675.903	-5.38
675.934	-0.38
675.965	-11.38
675.996	-7.38
676.027	5.62
676.058	-12.38
676.089	-28.38
676.119	-16.38
676.15	-15.38
676.181	-12.38
676.212	-5.38
676.243	1.62
676.274	-17.38
676.304	0.62
676.335	-22.38
676.366	-1.38
676.397	-4.38
676.428	-6.38
676.459	7.62
676.489	-2.38
676.52	4.62
676.551	2.62
676.582	-15.38
676.613	-2.38
676.643	-14.38
676.674	-8.38
676.705	-8.38
676.736	-0.38
676.767	8.62
676.797	-2.38
676.828	5.62
676.859	-3.38
676.89	10.62
676.92	-1.38
676.951	3.62
676.982	2.62
677.013	-3.38
677.044	17.62
677.074	4.62
677.105	-5.38
677.136	6.62
677.167	0.62
677.197	7.62
677.228	1.62
677.259	-22.38
677.289	-1.38
677.32	-9.38
677.351	-10.38
677.382	-5.38
677.412	-12.38
677.443	4.62
677.474	-0.38
677.505	-9.38
677.535	-8.38
677.566	-6.38
677.597	-40.38
677.627	-2.38
677.658	-6.38
677.689	-3.38
677.72	-6.38
677.75	-4.38
677.781	-2.38
677.812	-1.38
677.842	4.62
677.873	-18.38
677.904	-12.38
677.934	-15.38
677.965	-9.38
677.996	-24.38
678.026	-7.38
678.057	-13.38
678.088	-35.38
678.118	-7.38
678.149	-6.38
678.18	-12.38
678.21	-7.38
678.241	-7.38
678.272	0.62
678.302	-13.38
678.333	-2.38
678.363	12.62
678.394	7.62
678.425	-2.38
678.455	-3.38
678.486	7.62
678.517	-18.38
678.547	6.62
678.578	11.62
678.608	-8.38
678.639	-11.38
678.67	1.62
678.7	-0.38
678.731	-5.38
678.761	-10.38
678.792	-16.38
678.823	-10.38
678.853	-8.38
678.884	-8.38
678.914	-2.38
678.945	-1.38
678.975	-15.38
679.006	-10.38
679.037	-21.38
679.067	4.62
679.098	2.62
679.128	-9.38
679.159	-4.38
679.189	9.62
679.22	-21.38
679.25	-4.38
679.281	3.62
679.312	-7.38
679.342	3.62
679.373	35.62
679.403	5.62
679.434	13.62
679.464	1.62
679.495	4.62
679.525	-0.38
679.556	1.62
679.586	21.62
679.617	8.62
679.647	-0.38
679.678	-5.38
679.708	-4.38
679.739	-6.38
679.769	-13.38
679.8	-7.38
679.83	3.62
679.861	19.62
679.891	0.62
679.922	-16.38
679.952	-15.38
679.983	3.62
680.013	2.62
680.044	-3.38
680.074	8.62
680.105	-4.38
680.135	-0.38
680.165	-6.38
680.196	4.62
680.226	-7.38
680.257	7.62
680.287	12.62
680.318	-8.38
680.348	-10.38
680.379	-5.38
680.409	-0.38
680.439	-13.38
680.47	-7.38
680.5	-18.38
680.531	-8.38
680.561	6.62
680.592	10.62
680.622	18.62
680.652	-0.38
680.683	5.62
680.713	-13.38
680.744	-14.38
680.774	7.62
680.804	15.62
680.835	-7.38
680.865	-15.38
680.896	10.62
680.926	29.62
680.956	-11.38
680.987	-6.38
681.017	-6.38
681.047	-3.38
681.078	-23.38
681.108	-4.38
681.139	-14.38
681.169	-1.38
681.199	0.62
681.23	12.62
681.26	3.62
681.29	2.62
681.321	-23.38
681.351	-12.38
681.381	-15.38
681.412	16.62
681.442	4.62
681.472	9.62
681.503	-3.38
681.533	-2.38
681.563	3.62
681.594	2.62
681.624	-8.38
681.654	-21.38
681.685	-4.38
681.715	-3.38
681.745	-3.38
681.775	-17.38
681.806	0.62
681.836	-3.38
681.866	-10.38
681.897	0.62
681.927	2.62
681.957	-5.38
681.987	3.62
682.018	2.62
682.048	3.62
682.078	13.62
682.109	5.62
682.139	10.62
682.169	18.62
682.199	-2.38
682.23	-2.38
682.26	3.62
682.29	-7.38
