Data from HighRes_H2D2_15_04_11_07_2024_HR4C61891__18__15-05-36-243.txt Node

Date: Thu Nov 07 15:05:36 EST 2024
User: crc00042
Spectrometer: HR4C6189
Trigger mode: 4
Integration Time (sec): 1.000000E-1
Scans to average: 1
Electric dark correction enabled: true
Nonlinearity correction enabled: false
Boxcar width: 0
XAxis mode: Wavelengths
Number of Pixels in Spectrum: 3648
>>>>>Begin Spectral Data<<<<<
639.567	-71.92
639.602	-71.92
639.636	-71.92
639.67	-53.92
639.704	-9.92
639.738	-18.92
639.773	10.08
639.807	-15.92
639.841	-1.92
639.875	7.08
639.909	-2.92
639.943	14.08
639.978	-3.92
640.012	4.08
640.046	13.08
640.08	1.08
640.114	-0.92
640.148	-4.92
640.182	-12.92
640.217	-8.92
640.251	18.08
640.285	10.08
640.319	-8.92
640.353	11.08
640.387	15.08
640.421	6.08
640.455	2.08
640.49	-13.92
640.524	6.08
640.558	15.08
640.592	11.08
640.626	-9.92
640.66	-1.92
640.694	-2.92
640.728	18.08
640.762	14.08
640.796	18.08
640.83	14.08
640.865	-1.92
640.899	18.08
640.933	3.08
640.967	11.08
641.001	9.08
641.035	2.08
641.069	-6.92
641.103	-4.92
641.137	-8.92
641.171	-15.92
641.205	0.08
641.239	-6.92
641.273	20.08
641.307	11.08
641.341	-2.92
641.375	-0.92
641.409	7.08
641.443	2.08
641.477	10.08
641.511	3.08
641.545	-6.92
641.579	-2.92
641.614	18.08
641.648	7.08
641.682	12.08
641.716	17.08
641.75	-0.92
641.784	-4.92
641.818	-5.92
641.852	-2.92
641.886	-20.92
641.919	13.08
641.953	5.08
641.987	-2.92
642.021	2.08
642.055	17.08
642.089	22.08
642.123	-12.92
642.157	-12.92
642.191	-1.92
642.225	1.08
642.259	-1.92
642.293	-2.92
642.327	-7.92
642.361	7.08
642.395	9.08
642.429	20.08
642.463	6.08
642.497	15.08
642.531	17.08
642.565	4.08
642.599	0.08
642.633	-15.92
642.666	19.08
642.7	16.08
642.734	11.08
642.768	-7.92
642.802	7.08
642.836	12.08
642.87	0.08
642.904	2.08
642.938	17.08
642.972	15.08
643.005	2.08
643.039	14.08
643.073	3.08
643.107	16.08
643.141	23.08
643.175	8.08
643.209	11.08
643.243	2.08
643.276	-0.92
643.31	5.08
643.344	11.08
643.378	-5.92
643.412	13.08
643.446	3.08
643.48	-1.92
643.513	11.08
643.547	4.08
643.581	9.08
643.615	14.08
643.649	8.08
643.683	14.08
643.716	-4.92
643.75	10.08
643.784	-11.92
643.818	16.08
643.852	-15.92
643.886	-6.92
643.919	1.08
643.953	13.08
643.987	-13.92
644.021	3.08
644.055	21.08
644.088	-12.92
644.122	-3.92
644.156	-9.92
644.19	-7.92
644.224	-8.92
644.257	-11.92
644.291	12.08
644.325	14.08
644.359	4.08
644.392	20.08
644.426	17.08
644.46	1.08
644.494	4.08
644.527	-11.92
644.561	17.08
644.595	-6.92
644.629	-13.92
644.662	1.08
644.696	13.08
644.73	4.08
644.764	11.08
644.797	3.08
644.831	-2.92
644.865	11.08
644.899	8.08
644.932	28.08
644.966	6.08
645	7.08
645.033	23.08
645.067	-4.92
645.101	-3.92
645.135	2.08
645.168	-11.92
645.202	-17.92
645.236	-0.92
645.269	12.08
645.303	8.08
645.337	-25.92
645.37	-5.92
645.404	-9.92
645.438	-4.92
645.471	-15.92
645.505	8.08
645.539	8.08
645.572	-17.92
645.606	8.08
645.64	1.08
645.673	-3.92
645.707	2.08
645.741	-0.92
645.774	-12.92
645.808	-0.92
645.842	2.08
645.875	8.08
645.909	1.08
645.943	-23.92
645.976	-0.92
646.01	17.08
646.043	7.08
646.077	17.08
646.111	14.08
646.144	20.08
646.178	-6.92
646.212	-29.92
646.245	-13.92
646.279	6.08
646.312	0.08
646.346	23.08
646.38	13.08
646.413	8.08
646.447	15.08
646.48	6.08
646.514	2.08
646.547	-3.92
646.581	-0.92
646.615	-10.92
646.648	7.08
646.682	-20.92
646.715	0.08
646.749	11.08
646.782	-8.92
646.816	-7.92
646.85	-6.92
646.883	-5.92
646.917	3.08
646.95	16.08
646.984	14.08
647.017	-7.92
647.051	-1.92
647.084	4.08
647.118	-4.92
647.151	-4.92
647.185	7.08
647.218	-0.92
647.252	-4.92
647.285	-29.92
647.319	-17.92
647.353	7.08
647.386	31.08
647.42	-0.92
647.453	9.08
647.487	14.08
647.52	8.08
647.553	14.08
647.587	-5.92
647.62	3.08
647.654	-4.92
647.687	16.08
647.721	4.08
647.754	-2.92
647.788	4.08
647.821	-14.92
647.855	-0.92
647.888	21.08
647.922	16.08
647.955	10.08
647.989	26.08
648.022	-2.92
648.055	13.08
648.089	-10.92
648.122	20.08
648.156	1.08
648.189	1.08
648.223	7.08
648.256	16.08
648.29	0.08
648.323	10.08
648.356	11.08
648.39	2.08
648.423	8.08
648.457	3.08
648.49	15.08
648.523	17.08
648.557	11.08
648.59	7.08
648.624	-7.92
648.657	13.08
648.69	30.08
648.724	19.08
648.757	26.08
648.791	14.08
648.824	6.08
648.857	26.08
648.891	18.08
648.924	11.08
648.957	18.08
648.991	2.08
649.024	20.08
649.057	-1.92
649.091	4.08
649.124	20.08
649.158	-4.92
649.191	15.08
649.224	1.08
649.258	16.08
649.291	5.08
649.324	9.08
649.358	-3.92
649.391	2.08
649.424	14.08
649.458	10.08
649.491	8.08
649.524	4.08
649.557	-8.92
649.591	-17.92
649.624	10.08
649.657	1.08
649.691	21.08
649.724	15.08
649.757	13.08
649.791	6.08
649.824	22.08
649.857	13.08
649.89	4.08
649.924	-14.92
649.957	-1.92
649.99	-11.92
650.023	-2.92
650.057	-11.92
650.09	16.08
650.123	3.08
650.157	8.08
650.19	27.08
650.223	10.08
650.256	-15.92
650.29	0.08
650.323	-1.92
650.356	14.08
650.389	-1.92
650.423	-12.92
650.456	17.08
650.489	12.08
650.522	11.08
650.555	-0.92
650.589	-3.92
650.622	-2.92
650.655	-6.92
650.688	9.08
650.721	6.08
650.755	15.08
650.788	22.08
650.821	5.08
650.854	3.08
650.887	13.08
650.921	3.08
650.954	10.08
650.987	-3.92
651.02	0.08
651.053	-1.92
651.087	-1.92
651.12	24.08
651.153	-2.92
651.186	10.08
651.219	-10.92
651.252	13.08
651.286	13.08
651.319	-10.92
651.352	4.08
651.385	8.08
651.418	16.08
651.451	1.08
651.484	4.08
651.518	-7.92
651.551	9.08
651.584	-3.92
651.617	27.08
651.65	14.08
651.683	9.08
651.716	1.08
651.749	-24.92
651.783	-6.92
651.816	14.08
651.849	17.08
651.882	7.08
651.915	-1.92
651.948	19.08
651.981	6.08
652.014	-12.92
652.047	-0.92
652.08	-7.92
652.114	-1.92
652.147	0.08
652.18	10.08
652.213	38.08
652.246	16.08
652.279	7.08
652.312	13.08
652.345	-0.92
652.378	3.08
652.411	12.08
652.444	12.08
652.477	8.08
652.51	-8.92
652.543	-8.92
652.576	-1.92
652.609	-0.92
652.642	7.08
652.675	16.08
652.709	3.08
652.742	14.08
652.775	4.08
652.808	12.08
652.841	1.08
652.874	-1.92
652.907	7.08
652.94	7.08
652.973	-2.92
653.006	-4.92
653.039	10.08
653.072	-5.92
653.105	-4.92
653.138	5.08
653.171	1.08
653.204	4.08
653.237	7.08
653.27	-8.92
653.303	13.08
653.336	12.08
653.368	8.08
653.401	1.08
653.434	6.08
653.467	19.08
653.5	-3.92
653.533	-9.92
653.566	6.08
653.599	9.08
653.632	16.08
653.665	26.08
653.698	1.08
653.731	-3.92
653.764	11.08
653.797	12.08
653.83	14.08
653.863	4.08
653.896	-7.92
653.929	-0.92
653.961	16.08
653.994	10.08
654.027	-3.92
654.06	-0.92
654.093	-3.92
654.126	5.08
654.159	-12.92
654.192	-2.92
654.225	3.08
654.258	4.08
654.29	13.08
654.323	20.08
654.356	17.08
654.389	11.08
654.422	8.08
654.455	11.08
654.488	1.08
654.521	-16.92
654.553	-4.92
654.586	20.08
654.619	17.08
654.652	4.08
654.685	15.08
654.718	21.08
654.751	20.08
654.783	12.08
654.816	29.08
654.849	9.08
654.882	4.08
654.915	-1.92
654.948	12.08
654.98	16.08
655.013	0.08
655.046	-12.92
655.079	-15.92
655.112	3.08
655.144	-14.92
655.177	-1.92
655.21	17.08
655.243	25.08
655.276	13.08
655.308	-3.92
655.341	-17.92
655.374	22.08
655.407	6.08
655.44	2.08
655.472	4.08
655.505	11.08
655.538	-6.92
655.571	15.08
655.603	1.08
655.636	8.08
655.669	12.08
655.702	5.08
655.734	-16.92
655.767	17.08
655.8	15.08
655.833	7.08
655.865	10.08
655.898	13.08
655.931	29.08
655.964	7.08
655.996	17.08
656.029	46.08
656.062	29.08
656.095	44.08
656.127	85.08
656.16	209.08
656.193	618.08
656.225	940.08
656.258	570.08
656.291	223.08
656.324	180.08
656.356	368.08
656.389	771.08
656.422	686.08
656.454	248.08
656.487	69.08
656.52	26.08
656.552	14.08
656.585	11.08
656.618	26.08
656.65	20.08
656.683	15.08
656.716	11.08
656.748	8.08
656.781	-0.92
656.814	7.08
656.846	6.08
656.879	12.08
656.912	11.08
656.944	-16.92
656.977	6.08
657.01	6.08
657.042	5.08
657.075	14.08
657.108	8.08
657.14	7.08
657.173	13.08
657.205	21.08
657.238	-3.92
657.271	1.08
657.303	3.08
657.336	7.08
657.369	7.08
657.401	12.08
657.434	5.08
657.466	18.08
657.499	-6.92
657.532	6.08
657.564	4.08
657.597	7.08
657.629	10.08
657.662	7.08
657.694	2.08
657.727	-9.92
657.76	4.08
657.792	-2.92
657.825	4.08
657.857	0.08
657.89	3.08
657.922	16.08
657.955	-1.92
657.987	-0.92
658.02	2.08
658.053	14.08
658.085	5.08
658.118	5.08
658.15	8.08
658.183	18.08
658.215	-9.92
658.248	-15.92
658.28	-1.92
658.313	10.08
658.345	5.08
658.378	2.08
658.41	5.08
658.443	10.08
658.475	-3.92
658.508	-17.92
658.54	2.08
658.573	-3.92
658.605	23.08
658.638	7.08
658.67	9.08
658.703	-6.92
658.735	-14.92
658.768	7.08
658.8	-10.92
658.833	19.08
658.865	19.08
658.898	21.08
658.93	-13.92
658.963	-9.92
658.995	-18.92
659.028	2.08
659.06	8.08
659.092	8.08
659.125	5.08
659.157	11.08
659.19	6.08
659.222	4.08
659.255	13.08
659.287	-4.92
659.32	-5.92
659.352	13.08
659.384	-4.92
659.417	8.08
659.449	4.08
659.482	11.08
659.514	2.08
659.546	-4.92
659.579	1.08
659.611	-5.92
659.644	-7.92
659.676	-2.92
659.708	-5.92
659.741	-1.92
659.773	9.08
659.806	8.08
659.838	20.08
659.87	-0.92
659.903	-9.92
659.935	6.08
659.967	13.08
660	1.08
660.032	-5.92
660.065	8.08
660.097	12.08
660.129	2.08
660.162	-29.92
660.194	19.08
660.226	17.08
660.259	20.08
660.291	14.08
660.323	11.08
660.356	-2.92
660.388	-9.92
660.42	-8.92
660.453	12.08
660.485	6.08
660.517	12.08
660.55	3.08
660.582	-17.92
660.614	-4.92
660.647	4.08
660.679	-5.92
660.711	6.08
660.743	-15.92
660.776	-21.92
660.808	-4.92
660.84	-10.92
660.873	6.08
660.905	5.08
660.937	-6.92
660.969	-1.92
661.002	-2.92
661.034	19.08
661.066	7.08
661.099	9.08
661.131	-2.92
661.163	0.08
661.195	-21.92
661.228	10.08
661.26	9.08
661.292	-8.92
661.324	17.08
661.357	15.08
661.389	10.08
661.421	1.08
661.453	-2.92
661.485	11.08
661.518	-1.92
661.55	-31.92
661.582	-12.92
661.614	-7.92
661.647	10.08
661.679	-4.92
661.711	14.08
661.743	-3.92
661.775	7.08
661.808	13.08
661.84	-11.92
661.872	-2.92
661.904	-3.92
661.936	3.08
661.969	-15.92
662.001	-6.92
662.033	0.08
662.065	-7.92
662.097	18.08
662.129	-6.92
662.162	-23.92
662.194	-6.92
662.226	14.08
662.258	8.08
662.29	-2.92
662.322	-0.92
662.355	-14.92
662.387	-1.92
662.419	-0.92
662.451	10.08
662.483	23.08
662.515	-7.92
662.547	-6.92
662.58	-5.92
662.612	-5.92
662.644	-13.92
662.676	9.08
662.708	22.08
662.74	-2.92
662.772	8.08
662.804	17.08
662.836	3.08
662.869	-11.92
662.901	5.08
662.933	0.08
662.965	4.08
662.997	14.08
663.029	-3.92
663.061	-7.92
663.093	17.08
663.125	-0.92
663.157	-3.92
663.189	16.08
663.221	29.08
663.254	2.08
663.286	-3.92
663.318	-9.92
663.35	-13.92
663.382	5.08
663.414	-0.92
663.446	13.08
663.478	-3.92
663.51	29.08
663.542	4.08
663.574	15.08
663.606	-6.92
663.638	-7.92
663.67	-4.92
663.702	-2.92
663.734	9.08
663.766	-4.92
663.798	-14.92
663.83	9.08
663.862	15.08
663.894	14.08
663.926	8.08
663.958	7.08
663.99	1.08
664.022	-1.92
664.054	-6.92
664.086	-15.92
664.118	-0.92
664.15	-9.92
664.182	-11.92
664.214	7.08
664.246	18.08
664.278	17.08
664.31	19.08
664.342	3.08
664.374	-10.92
664.406	-9.92
664.438	-9.92
664.47	14.08
664.502	-5.92
664.534	-13.92
664.566	-4.92
664.598	1.08
664.63	9.08
664.662	13.08
664.693	1.08
664.725	-15.92
664.757	0.08
664.789	-10.92
664.821	9.08
664.853	14.08
664.885	10.08
664.917	7.08
664.949	11.08
664.981	14.08
665.013	-1.92
665.045	-0.92
665.076	1.08
665.108	5.08
665.14	-0.92
665.172	9.08
665.204	1.08
665.236	-8.92
665.268	-5.92
665.3	-20.92
665.331	-2.92
665.363	8.08
665.395	-1.92
665.427	-5.92
665.459	8.08
665.491	-15.92
665.523	10.08
665.555	9.08
665.586	9.08
665.618	0.08
665.65	-13.92
665.682	31.08
665.714	6.08
665.746	-6.92
665.777	10.08
665.809	15.08
665.841	-0.92
665.873	-0.92
665.905	-5.92
665.937	24.08
665.968	5.08
666	11.08
666.032	8.08
666.064	0.08
666.096	14.08
666.127	18.08
666.159	7.08
666.191	-1.92
666.223	10.08
666.255	17.08
666.286	9.08
666.318	6.08
666.35	13.08
666.382	27.08
666.413	1.08
666.445	-13.92
666.477	-15.92
666.509	-16.92
666.54	-2.92
666.572	-4.92
666.604	8.08
666.636	0.08
666.667	17.08
666.699	4.08
666.731	16.08
666.763	5.08
666.794	1.08
666.826	-3.92
666.858	4.08
666.89	12.08
666.921	21.08
666.953	7.08
666.985	-2.92
667.017	18.08
667.048	-4.92
667.08	6.08
667.112	4.08
667.143	7.08
667.175	4.08
667.207	-9.92
667.238	5.08
667.27	-11.92
667.302	10.08
667.334	-13.92
667.365	11.08
667.397	6.08
667.429	8.08
667.46	20.08
667.492	-1.92
667.524	-2.92
667.555	-16.92
667.587	-9.92
667.619	3.08
667.65	1.08
667.682	-5.92
667.714	7.08
667.745	-7.92
667.777	5.08
667.808	9.08
667.84	23.08
667.872	3.08
667.903	2.08
667.935	10.08
667.967	5.08
667.998	-3.92
668.03	0.08
668.061	8.08
668.093	17.08
668.125	1.08
668.156	10.08
668.188	8.08
668.22	1.08
668.251	3.08
668.283	4.08
668.314	18.08
668.346	-7.92
668.377	-5.92
668.409	-1.92
668.441	10.08
668.472	-2.92
668.504	10.08
668.535	26.08
668.567	13.08
668.599	8.08
668.63	-9.92
668.662	2.08
668.693	21.08
668.725	18.08
668.756	8.08
668.788	3.08
668.819	4.08
668.851	4.08
668.882	2.08
668.914	-0.92
668.946	-18.92
668.977	-4.92
669.009	11.08
669.04	-2.92
669.072	2.08
669.103	7.08
669.135	-1.92
669.166	4.08
669.198	12.08
669.229	16.08
669.261	9.08
669.292	-17.92
669.324	11.08
669.355	7.08
669.387	-15.92
669.418	21.08
669.45	-6.92
669.481	15.08
669.513	7.08
669.544	2.08
669.576	-6.92
669.607	15.08
669.639	22.08
669.67	1.08
669.701	-3.92
669.733	-12.92
669.764	10.08
669.796	8.08
669.827	-19.92
669.859	3.08
669.89	15.08
669.922	5.08
669.953	-0.92
669.985	7.08
670.016	13.08
670.047	5.08
670.079	-3.92
670.11	22.08
670.142	3.08
670.173	-6.92
670.204	0.08
670.236	7.08
670.267	-17.92
670.299	9.08
670.33	3.08
670.362	5.08
670.393	-2.92
670.424	2.08
670.456	-3.92
670.487	1.08
670.518	-3.92
670.55	9.08
670.581	-4.92
670.613	10.08
670.644	-9.92
670.675	-6.92
670.707	-5.92
670.738	3.08
670.769	8.08
670.801	-19.92
670.832	-4.92
670.864	-12.92
670.895	4.08
670.926	-1.92
670.958	1.08
670.989	-0.92
671.02	-16.92
671.052	7.08
671.083	13.08
671.114	-8.92
671.146	10.08
671.177	-9.92
671.208	-11.92
671.24	2.08
671.271	-3.92
671.302	-2.92
671.333	-9.92
671.365	-4.92
671.396	-3.92
671.427	-1.92
671.459	12.08
671.49	8.08
671.521	8.08
671.553	4.08
671.584	11.08
671.615	-17.92
671.646	2.08
671.678	11.08
671.709	-5.92
671.74	-11.92
671.771	-8.92
671.803	-1.92
671.834	-3.92
671.865	8.08
671.896	15.08
671.928	9.08
671.959	6.08
671.99	3.08
672.021	-6.92
672.053	-3.92
672.084	8.08
672.115	-5.92
672.146	0.08
672.178	3.08
672.209	-0.92
672.24	0.08
672.271	24.08
672.303	9.08
672.334	4.08
672.365	0.08
672.396	-11.92
672.427	-6.92
672.459	26.08
672.49	38.08
672.521	14.08
672.552	7.08
672.583	22.08
672.615	12.08
672.646	11.08
672.677	6.08
672.708	20.08
672.739	15.08
672.77	6.08
672.802	3.08
672.833	-4.92
672.864	15.08
672.895	0.08
672.926	-5.92
672.957	-16.92
672.989	19.08
673.02	14.08
673.051	11.08
673.082	8.08
673.113	-2.92
673.144	-2.92
673.175	18.08
673.206	-7.92
673.238	10.08
673.269	2.08
673.3	-12.92
673.331	14.08
673.362	-8.92
673.393	8.08
673.424	12.08
673.455	3.08
673.487	3.08
673.518	15.08
673.549	0.08
673.58	2.08
673.611	13.08
673.642	9.08
673.673	0.08
673.704	17.08
673.735	5.08
673.766	-1.92
673.797	7.08
673.828	1.08
673.86	-2.92
673.891	7.08
673.922	-3.92
673.953	12.08
673.984	13.08
674.015	-0.92
674.046	13.08
674.077	3.08
674.108	0.08
674.139	-16.92
674.17	-12.92
674.201	-8.92
674.232	-7.92
674.263	8.08
674.294	-7.92
674.325	-8.92
674.356	2.08
674.387	9.08
674.418	13.08
674.449	-15.92
674.48	2.08
674.511	14.08
674.542	1.08
674.573	-8.92
674.604	30.08
674.635	-0.92
674.666	22.08
674.697	13.08
674.728	-1.92
674.759	-7.92
674.79	-13.92
674.821	-0.92
674.852	18.08
674.883	-10.92
674.914	-6.92
674.945	4.08
674.976	1.08
675.007	-2.92
675.038	-0.92
675.069	-14.92
675.1	-1.92
675.131	-11.92
675.162	-9.92
675.193	0.08
675.224	-5.92
675.254	-2.92
675.285	13.08
675.316	19.08
675.347	7.08
675.378	-8.92
675.409	-6.92
675.44	9.08
675.471	7.08
675.502	-13.92
675.533	10.08
675.564	7.08
675.595	-2.92
675.625	26.08
675.656	17.08
675.687	14.08
675.718	-15.92
675.749	10.08
675.78	-0.92
675.811	8.08
675.842	9.08
675.873	6.08
675.903	-6.92
675.934	16.08
675.965	-1.92
675.996	-29.92
676.027	4.08
676.058	7.08
676.089	-7.92
676.119	-1.92
676.15	-2.92
676.181	-12.92
676.212	-1.92
676.243	18.08
676.274	-1.92
676.304	10.08
676.335	-5.92
676.366	-4.92
676.397	-0.92
676.428	19.08
676.459	7.08
676.489	6.08
676.52	8.08
676.551	-5.92
676.582	-4.92
676.613	15.08
676.643	-9.92
676.674	19.08
676.705	14.08
676.736	8.08
676.767	9.08
676.797	2.08
676.828	8.08
676.859	1.08
676.89	-3.92
676.92	14.08
676.951	12.08
676.982	-9.92
677.013	0.08
677.044	19.08
677.074	6.08
677.105	-11.92
677.136	12.08
677.167	6.08
677.197	3.08
677.228	-7.92
677.259	10.08
677.289	-14.92
677.32	-6.92
677.351	-3.92
677.382	-4.92
677.412	8.08
677.443	11.08
677.474	12.08
677.505	-12.92
677.535	1.08
677.566	3.08
677.597	-16.92
677.627	-6.92
677.658	-7.92
677.689	2.08
677.72	12.08
677.75	-8.92
677.781	3.08
677.812	-5.92
677.842	-1.92
677.873	-0.92
677.904	-1.92
677.934	7.08
677.965	-3.92
677.996	-6.92
678.026	1.08
678.057	3.08
678.088	-7.92
678.118	-3.92
678.149	-11.92
678.18	0.08
678.21	-1.92
678.241	-18.92
678.272	4.08
678.302	7.08
678.333	12.08
678.363	14.08
678.394	2.08
678.425	0.08
678.455	12.08
678.486	24.08
678.517	0.08
678.547	8.08
678.578	-6.92
678.608	-16.92
678.639	-4.92
678.67	11.08
678.7	-3.92
678.731	-7.92
678.761	-5.92
678.792	3.08
678.823	16.08
678.853	10.08
678.884	6.08
678.914	8.08
678.945	4.08
678.975	1.08
679.006	10.08
679.037	-12.92
679.067	32.08
679.098	0.08
679.128	-3.92
679.159	-9.92
679.189	3.08
679.22	-15.92
679.25	11.08
679.281	16.08
679.312	12.08
679.342	6.08
679.373	25.08
679.403	11.08
679.434	-1.92
679.464	-6.92
679.495	-4.92
679.525	-4.92
679.556	0.08
679.586	10.08
679.617	6.08
679.647	11.08
679.678	8.08
679.708	-4.92
679.739	1.08
679.769	-1.92
679.8	3.08
679.83	1.08
679.861	0.08
679.891	8.08
679.922	-7.92
679.952	-6.92
679.983	14.08
680.013	2.08
680.044	-13.92
680.074	6.08
680.105	4.08
680.135	8.08
680.165	4.08
680.196	-4.92
680.226	5.08
680.257	25.08
680.287	7.08
680.318	-0.92
680.348	-6.92
680.379	19.08
680.409	7.08
680.439	-1.92
680.47	0.08
680.5	0.08
680.531	-4.92
680.561	9.08
680.592	16.08
680.622	5.08
680.652	-5.92
680.683	9.08
680.713	-4.92
680.744	-13.92
680.774	-11.92
680.804	13.08
680.835	-6.92
680.865	7.08
680.896	26.08
680.926	19.08
680.956	14.08
680.987	1.08
681.017	-13.92
681.047	5.08
681.078	-17.92
681.108	2.08
681.139	6.08
681.169	6.08
681.199	-6.92
681.23	17.08
681.26	2.08
681.29	-13.92
681.321	-10.92
681.351	-6.92
681.381	-12.92
681.412	12.08
681.442	12.08
681.472	31.08
681.503	12.08
681.533	-14.92
681.563	1.08
681.594	4.08
681.624	15.08
681.654	6.08
681.685	-6.92
681.715	9.08
681.745	1.08
681.775	-11.92
681.806	-2.92
681.836	6.08
681.866	3.08
681.897	10.08
681.927	-6.92
681.957	-12.92
681.987	13.08
682.018	0.08
682.048	-0.92
682.078	-1.92
682.109	27.08
682.139	4.08
682.169	-3.92
682.199	5.08
682.23	6.08
682.26	-1.92
682.29	-1.92
682.32	11.08
682.351	-0.92
682.381	6.08
682.411	-16.92
682.441	-25.92
682.472	-4.92
682.502	7.08
682.532	3.08
682.562	9.08
