Data from HighRes_H2D2_15_04_11_07_2024_HR4C61891__66__15-05-41-043.txt Node

Date: Thu Nov 07 15:05:41 EST 2024
User: crc00042
Spectrometer: HR4C6189
Trigger mode: 4
Integration Time (sec): 1.000000E-1
Scans to average: 1
Electric dark correction enabled: true
Nonlinearity correction enabled: false
Boxcar width: 0
XAxis mode: Wavelengths
Number of Pixels in Spectrum: 3648
>>>>>Begin Spectral Data<<<<<
639.567	-73.77
639.602	-73.77
639.636	-73.77
639.67	-38.77
639.704	-12.77
639.738	-1.77
639.773	8.23
639.807	-25.77
639.841	-5.77
639.875	10.23
639.909	-0.77
639.943	3.23
639.978	-3.77
640.012	2.23
640.046	11.23
640.08	3.23
640.114	6.23
640.148	-6.77
640.182	-25.77
640.217	-0.77
640.251	23.23
640.285	8.23
640.319	-7.77
640.353	-2.77
640.387	-0.77
640.421	-4.77
640.455	0.23
640.49	-0.77
640.524	-5.77
640.558	13.23
640.592	6.23
640.626	5.23
640.66	20.23
640.694	6.23
640.728	10.23
640.762	21.23
640.796	15.23
640.83	20.23
640.865	-3.77
640.899	2.23
640.933	-8.77
640.967	-8.77
641.001	2.23
641.035	22.23
641.069	8.23
641.103	-5.77
641.137	7.23
641.171	-7.77
641.205	1.23
641.239	-3.77
641.273	26.23
641.307	16.23
641.341	-13.77
641.375	2.23
641.409	-4.77
641.443	4.23
641.477	6.23
641.511	6.23
641.545	13.23
641.579	3.23
641.614	-2.77
641.648	21.23
641.682	-18.77
641.716	16.23
641.75	10.23
641.784	-0.77
641.818	2.23
641.852	4.23
641.886	-12.77
641.919	20.23
641.953	8.23
641.987	-19.77
642.021	-5.77
642.055	7.23
642.089	2.23
642.123	-11.77
642.157	-17.77
642.191	2.23
642.225	3.23
642.259	4.23
642.293	12.23
642.327	4.23
642.361	0.23
642.395	9.23
642.429	20.23
642.463	14.23
642.497	15.23
642.531	0.23
642.565	-13.77
642.599	12.23
642.633	-7.77
642.666	-0.77
642.7	29.23
642.734	12.23
642.768	-12.77
642.802	-12.77
642.836	16.23
642.87	3.23
642.904	11.23
642.938	19.23
642.972	-3.77
643.005	0.23
643.039	13.23
643.073	4.23
643.107	-0.77
643.141	4.23
643.175	2.23
643.209	0.23
643.243	13.23
643.276	13.23
643.31	6.23
643.344	-5.77
643.378	2.23
643.412	3.23
643.446	7.23
643.48	-10.77
643.513	7.23
643.547	16.23
643.581	3.23
643.615	6.23
643.649	3.23
643.683	8.23
643.716	0.23
643.75	1.23
643.784	-10.77
643.818	12.23
643.852	-6.77
643.886	-7.77
643.919	9.23
643.953	13.23
643.987	-0.77
644.021	14.23
644.055	14.23
644.088	8.23
644.122	-15.77
644.156	-9.77
644.19	1.23
644.224	3.23
644.257	19.23
644.291	17.23
644.325	7.23
644.359	-11.77
644.392	33.23
644.426	14.23
644.46	14.23
644.494	4.23
644.527	2.23
644.561	25.23
644.595	6.23
644.629	-8.77
644.662	7.23
644.696	15.23
644.73	14.23
644.764	-0.77
644.797	-5.77
644.831	3.23
644.865	3.23
644.899	2.23
644.932	24.23
644.966	-6.77
645	10.23
645.033	26.23
645.067	-9.77
645.101	-4.77
645.135	-16.77
645.168	-8.77
645.202	-9.77
645.236	-5.77
645.269	21.23
645.303	-2.77
645.337	0.23
645.37	8.23
645.404	-3.77
645.438	-7.77
645.471	-16.77
645.505	5.23
645.539	-11.77
645.572	-3.77
645.606	-22.77
645.64	8.23
645.673	6.23
645.707	12.23
645.741	-2.77
645.774	-11.77
645.808	15.23
645.842	1.23
645.875	-3.77
645.909	-4.77
645.943	-1.77
645.976	-1.77
646.01	17.23
646.043	6.23
646.077	7.23
646.111	10.23
646.144	8.23
646.178	29.23
646.212	-5.77
646.245	-3.77
646.279	19.23
646.312	-7.77
646.346	7.23
646.38	-1.77
646.413	5.23
646.447	-0.77
646.48	-2.77
646.514	14.23
646.547	-3.77
646.581	-8.77
646.615	-1.77
646.648	-7.77
646.682	10.23
646.715	6.23
646.749	24.23
646.782	2.23
646.816	-4.77
646.85	2.23
646.883	-11.77
646.917	9.23
646.95	8.23
646.984	17.23
647.017	10.23
647.051	12.23
647.084	3.23
647.118	-3.77
647.151	-1.77
647.185	23.23
647.218	-14.77
647.252	6.23
647.285	-23.77
647.319	-6.77
647.353	4.23
647.386	12.23
647.42	-14.77
647.453	-15.77
647.487	-3.77
647.52	10.23
647.553	5.23
647.587	1.23
647.62	0.23
647.654	13.23
647.687	7.23
647.721	8.23
647.754	7.23
647.788	6.23
647.821	-10.77
647.855	-4.77
647.888	15.23
647.922	26.23
647.955	-1.77
647.989	9.23
648.022	5.23
648.055	5.23
648.089	1.23
648.122	9.23
648.156	-0.77
648.189	1.23
648.223	11.23
648.256	6.23
648.29	2.23
648.323	9.23
648.356	9.23
648.39	9.23
648.423	-3.77
648.457	9.23
648.49	9.23
648.523	4.23
648.557	6.23
648.59	-2.77
648.624	-0.77
648.657	-4.77
648.69	5.23
648.724	11.23
648.757	7.23
648.791	7.23
648.824	5.23
648.857	14.23
648.891	7.23
648.924	5.23
648.957	24.23
648.991	9.23
649.024	24.23
649.057	10.23
649.091	2.23
649.124	23.23
649.158	9.23
649.191	19.23
649.224	-7.77
649.258	3.23
649.291	-0.77
649.324	-2.77
649.358	13.23
649.391	16.23
649.424	6.23
649.458	-16.77
649.491	-2.77
649.524	-2.77
649.557	1.23
649.591	-3.77
649.624	22.23
649.657	8.23
649.691	12.23
649.724	20.23
649.757	-3.77
649.791	-4.77
649.824	21.23
649.857	21.23
649.89	2.23
649.924	3.23
649.957	-1.77
649.99	-5.77
650.023	11.23
650.057	2.23
650.09	4.23
650.123	8.23
650.157	25.23
650.19	30.23
650.223	6.23
650.256	6.23
650.29	-7.77
650.323	5.23
650.356	9.23
650.389	4.23
650.423	-5.77
650.456	23.23
650.489	13.23
650.522	9.23
650.555	23.23
650.589	16.23
650.622	2.23
650.655	17.23
650.688	-3.77
650.721	-14.77
650.755	0.23
650.788	9.23
650.821	9.23
650.854	-0.77
650.887	18.23
650.921	10.23
650.954	-17.77
650.987	0.23
651.02	-14.77
651.053	-14.77
651.087	-22.77
651.12	33.23
651.153	19.23
651.186	9.23
651.219	-16.77
651.252	-1.77
651.286	8.23
651.319	-3.77
651.352	7.23
651.385	5.23
651.418	0.23
651.451	3.23
651.484	13.23
651.518	7.23
651.551	36.23
651.584	5.23
651.617	23.23
651.65	10.23
651.683	17.23
651.716	12.23
651.749	-6.77
651.783	10.23
651.816	11.23
651.849	2.23
651.882	-4.77
651.915	-8.77
651.948	3.23
651.981	-19.77
652.014	-19.77
652.047	-15.77
652.08	-1.77
652.114	14.23
652.147	10.23
652.18	-7.77
652.213	18.23
652.246	-12.77
652.279	-1.77
652.312	19.23
652.345	-7.77
652.378	24.23
652.411	14.23
652.444	13.23
652.477	9.23
652.51	0.23
652.543	3.23
652.576	12.23
652.609	-4.77
652.642	8.23
652.675	10.23
652.709	-0.77
652.742	6.23
652.775	1.23
652.808	7.23
652.841	15.23
652.874	19.23
652.907	3.23
652.94	-12.77
652.973	0.23
653.006	4.23
653.039	3.23
653.072	4.23
653.105	14.23
653.138	-3.77
653.171	10.23
653.204	14.23
653.237	-12.77
653.27	-9.77
653.303	14.23
653.336	2.23
653.368	-0.77
653.401	12.23
653.434	9.23
653.467	3.23
653.5	2.23
653.533	-7.77
653.566	5.23
653.599	17.23
653.632	9.23
653.665	5.23
653.698	-11.77
653.731	-9.77
653.764	-6.77
653.797	12.23
653.83	21.23
653.863	17.23
653.896	6.23
653.929	5.23
653.961	7.23
653.994	1.23
654.027	-13.77
654.06	11.23
654.093	-8.77
654.126	2.23
654.159	-18.77
654.192	22.23
654.225	-7.77
654.258	-2.77
654.29	4.23
654.323	1.23
654.356	-12.77
654.389	-9.77
654.422	9.23
654.455	11.23
654.488	8.23
654.521	0.23
654.553	11.23
654.586	16.23
654.619	-8.77
654.652	-0.77
654.685	-2.77
654.718	-4.77
654.751	22.23
654.783	-11.77
654.816	25.23
654.849	9.23
654.882	2.23
654.915	9.23
654.948	14.23
654.98	11.23
655.013	11.23
655.046	17.23
655.079	0.23
655.112	4.23
655.144	5.23
655.177	5.23
655.21	6.23
655.243	18.23
655.276	3.23
655.308	-5.77
655.341	-3.77
655.374	7.23
655.407	-6.77
655.44	-11.77
655.472	7.23
655.505	8.23
655.538	5.23
655.571	13.23
655.603	7.23
655.636	-6.77
655.669	4.23
655.702	4.23
655.734	-5.77
655.767	4.23
655.8	7.23
655.833	2.23
655.865	17.23
655.898	11.23
655.931	9.23
655.964	15.23
655.996	18.23
656.029	52.23
656.062	38.23
656.095	52.23
656.127	91.23
656.16	207.23
656.193	608.23
656.225	927.23
656.258	571.23
656.291	232.23
656.324	189.23
656.356	361.23
656.389	758.23
656.422	675.23
656.454	219.23
656.487	96.23
656.52	49.23
656.552	4.23
656.585	18.23
656.618	-2.77
656.65	12.23
656.683	7.23
656.716	11.23
656.748	-3.77
656.781	-2.77
656.814	-2.77
656.846	0.23
656.879	8.23
656.912	-2.77
656.944	-12.77
656.977	-8.77
657.01	7.23
657.042	10.23
657.075	8.23
657.108	-3.77
657.14	7.23
657.173	14.23
657.205	24.23
657.238	13.23
657.271	2.23
657.303	-4.77
657.336	15.23
657.369	1.23
657.401	9.23
657.434	6.23
657.466	14.23
657.499	-4.77
657.532	0.23
657.564	4.23
657.597	6.23
657.629	10.23
657.662	13.23
657.694	12.23
657.727	-2.77
657.76	12.23
657.792	-12.77
657.825	-4.77
657.857	-1.77
657.89	7.23
657.922	24.23
657.955	-1.77
657.987	-0.77
658.02	12.23
658.053	7.23
658.085	8.23
658.118	2.23
658.15	0.23
658.183	10.23
658.215	7.23
658.248	-5.77
658.28	2.23
658.313	14.23
658.345	22.23
658.378	5.23
658.41	9.23
658.443	7.23
658.475	8.23
658.508	-5.77
658.54	12.23
658.573	-13.77
658.605	-23.77
658.638	-4.77
658.67	-1.77
658.703	1.23
658.735	-9.77
658.768	12.23
658.8	0.23
658.833	17.23
658.865	1.23
658.898	-4.77
658.93	-7.77
658.963	8.23
658.995	1.23
659.028	12.23
659.06	1.23
659.092	6.23
659.125	-4.77
659.157	24.23
659.19	-14.77
659.222	-7.77
659.255	16.23
659.287	13.23
659.32	7.23
659.352	7.23
659.384	14.23
659.417	-3.77
659.449	10.23
659.482	2.23
659.514	12.23
659.546	3.23
659.579	-13.77
659.611	9.23
659.644	7.23
659.676	-25.77
659.708	-7.77
659.741	4.23
659.773	-1.77
659.806	4.23
659.838	11.23
659.87	-7.77
659.903	-3.77
659.935	9.23
659.967	7.23
660	19.23
660.032	-4.77
660.065	12.23
660.097	9.23
660.129	1.23
660.162	-5.77
660.194	17.23
660.226	12.23
660.259	-7.77
660.291	12.23
660.323	1.23
660.356	-2.77
660.388	-7.77
660.42	-0.77
660.453	23.23
660.485	-8.77
660.517	15.23
660.55	11.23
660.582	3.23
660.614	8.23
660.647	10.23
660.679	11.23
660.711	21.23
660.743	-3.77
660.776	-0.77
660.808	-4.77
660.84	3.23
660.873	13.23
660.905	-9.77
660.937	11.23
660.969	-3.77
661.002	12.23
661.034	12.23
661.066	-3.77
661.099	8.23
661.131	19.23
661.163	3.23
661.195	5.23
661.228	5.23
661.26	3.23
661.292	2.23
661.324	1.23
661.357	3.23
661.389	8.23
661.421	22.23
661.453	-0.77
661.485	1.23
661.518	6.23
661.55	-25.77
661.582	-22.77
661.614	8.23
661.647	21.23
661.679	13.23
661.711	18.23
661.743	-0.77
661.775	9.23
661.808	28.23
661.84	-0.77
661.872	7.23
661.904	5.23
661.936	-5.77
661.969	-6.77
662.001	6.23
662.033	9.23
662.065	11.23
662.097	19.23
662.129	13.23
662.162	-12.77
662.194	13.23
662.226	-12.77
662.258	14.23
662.29	-1.77
662.322	2.23
662.355	-4.77
662.387	20.23
662.419	14.23
662.451	8.23
662.483	11.23
662.515	-5.77
662.547	-6.77
662.58	1.23
662.612	-12.77
662.644	-9.77
662.676	7.23
662.708	31.23
662.74	-2.77
662.772	1.23
662.804	10.23
662.836	6.23
662.869	0.23
662.901	17.23
662.933	6.23
662.965	13.23
662.997	6.23
663.029	-4.77
663.061	-3.77
663.093	-1.77
663.125	3.23
663.157	8.23
663.189	-4.77
663.221	11.23
663.254	7.23
663.286	16.23
663.318	3.23
663.35	-4.77
663.382	-3.77
663.414	-4.77
663.446	17.23
663.478	4.23
663.51	27.23
663.542	-6.77
663.574	-1.77
663.606	12.23
663.638	-7.77
663.67	-12.77
663.702	-15.77
663.734	-4.77
663.766	9.23
663.798	-10.77
663.83	3.23
663.862	2.23
663.894	17.23
663.926	-5.77
663.958	17.23
663.99	1.23
664.022	-13.77
664.054	-0.77
664.086	-0.77
664.118	-9.77
664.15	-11.77
664.182	9.23
664.214	2.23
664.246	8.23
664.278	-5.77
664.31	1.23
664.342	-0.77
664.374	-11.77
664.406	-18.77
664.438	9.23
664.47	20.23
664.502	14.23
664.534	7.23
664.566	1.23
664.598	14.23
664.63	-2.77
664.662	11.23
664.693	-5.77
664.725	4.23
664.757	0.23
664.789	4.23
664.821	1.23
664.853	16.23
664.885	14.23
664.917	4.23
664.949	16.23
664.981	15.23
665.013	13.23
665.045	-14.77
665.076	9.23
665.108	-0.77
665.14	-2.77
665.172	8.23
665.204	2.23
665.236	-6.77
665.268	-3.77
665.3	-8.77
665.331	8.23
665.363	20.23
665.395	-5.77
665.427	-0.77
665.459	8.23
665.491	-6.77
665.523	-13.77
665.555	-8.77
665.586	-0.77
665.618	7.23
665.65	-6.77
665.682	3.23
665.714	4.23
665.746	-3.77
665.777	13.23
665.809	7.23
665.841	14.23
665.873	-2.77
665.905	5.23
665.937	7.23
665.968	7.23
666	21.23
666.032	11.23
666.064	-16.77
666.096	7.23
666.127	-0.77
666.159	13.23
666.191	5.23
666.223	-5.77
666.255	-12.77
666.286	17.23
666.318	2.23
666.35	22.23
666.382	12.23
666.413	-12.77
666.445	-10.77
666.477	-7.77
666.509	-9.77
666.54	-0.77
666.572	-2.77
666.604	13.23
666.636	7.23
666.667	6.23
666.699	16.23
666.731	7.23
666.763	-5.77
666.794	-3.77
666.826	7.23
666.858	2.23
666.89	14.23
666.921	13.23
666.953	2.23
666.985	33.23
667.017	25.23
667.048	-3.77
667.08	3.23
667.112	1.23
667.143	-14.77
667.175	5.23
667.207	-9.77
667.238	-4.77
667.27	6.23
667.302	-2.77
667.334	-2.77
667.365	-1.77
667.397	3.23
667.429	-1.77
667.46	12.23
667.492	8.23
667.524	-7.77
667.555	-12.77
667.587	-2.77
667.619	-1.77
667.65	2.23
667.682	4.23
667.714	3.23
667.745	3.23
667.777	-12.77
667.808	-4.77
667.84	13.23
667.872	1.23
667.903	26.23
667.935	-9.77
667.967	6.23
667.998	-7.77
668.03	-13.77
668.061	9.23
668.093	10.23
668.125	9.23
668.156	5.23
668.188	-12.77
668.22	-0.77
668.251	10.23
668.283	11.23
668.314	16.23
668.346	-1.77
668.377	3.23
668.409	6.23
668.441	4.23
668.472	-11.77
668.504	9.23
668.535	-6.77
668.567	15.23
668.599	2.23
668.63	14.23
668.662	7.23
668.693	15.23
668.725	-2.77
668.756	5.23
668.788	2.23
668.819	-8.77
668.851	11.23
668.882	-4.77
668.914	-5.77
668.946	-3.77
668.977	1.23
669.009	4.23
669.04	-5.77
669.072	6.23
669.103	15.23
669.135	10.23
669.166	-11.77
669.198	1.23
669.229	-4.77
669.261	2.23
669.292	3.23
669.324	-4.77
669.355	19.23
669.387	-19.77
669.418	6.23
669.45	0.23
669.481	-15.77
669.513	15.23
669.544	12.23
669.576	3.23
669.607	6.23
669.639	15.23
669.67	-1.77
669.701	8.23
669.733	8.23
669.764	-7.77
669.796	3.23
669.827	-2.77
669.859	-0.77
669.89	14.23
669.922	13.23
669.953	12.23
669.985	-2.77
670.016	14.23
670.047	4.23
670.079	-16.77
670.11	11.23
670.142	3.23
670.173	10.23
670.204	-8.77
670.236	0.23
670.267	-1.77
670.299	6.23
670.33	5.23
670.362	9.23
670.393	7.23
670.424	0.23
670.456	-14.77
670.487	-3.77
670.518	-1.77
670.55	-6.77
670.581	-8.77
670.613	7.23
670.644	9.23
670.675	-8.77
670.707	-1.77
670.738	3.23
670.769	4.23
670.801	1.23
670.832	6.23
670.864	-1.77
670.895	17.23
670.926	14.23
670.958	22.23
670.989	1.23
671.02	-8.77
671.052	19.23
671.083	-4.77
671.114	8.23
671.146	8.23
671.177	-5.77
671.208	1.23
671.24	-9.77
671.271	12.23
671.302	-3.77
671.333	-4.77
671.365	-11.77
671.396	0.23
671.427	15.23
671.459	10.23
671.49	18.23
671.521	22.23
671.553	15.23
671.584	21.23
671.615	4.23
671.646	11.23
671.678	3.23
671.709	1.23
671.74	-11.77
671.771	2.23
671.803	-9.77
671.834	7.23
671.865	11.23
671.896	5.23
671.928	10.23
671.959	0.23
671.99	5.23
672.021	3.23
672.053	-3.77
672.084	17.23
672.115	8.23
672.146	2.23
672.178	-16.77
672.209	-18.77
672.24	-11.77
672.271	25.23
672.303	6.23
672.334	3.23
672.365	1.23
672.396	-2.77
672.427	18.23
672.459	2.23
672.49	19.23
672.521	16.23
672.552	-1.77
672.583	10.23
672.615	15.23
672.646	12.23
672.677	3.23
672.708	1.23
672.739	-3.77
672.77	5.23
672.802	-4.77
672.833	8.23
672.864	0.23
672.895	9.23
672.926	6.23
672.957	-8.77
672.989	6.23
673.02	8.23
673.051	7.23
673.082	9.23
673.113	14.23
673.144	10.23
673.175	8.23
673.206	7.23
673.238	-1.77
673.269	7.23
673.3	-3.77
673.331	5.23
673.362	14.23
673.393	6.23
673.424	1.23
673.455	29.23
673.487	4.23
673.518	6.23
673.549	-13.77
673.58	-9.77
673.611	-2.77
673.642	2.23
673.673	-9.77
673.704	-12.77
673.735	-2.77
673.766	-3.77
673.797	5.23
673.828	-4.77
673.86	-1.77
673.891	-12.77
673.922	-0.77
673.953	-4.77
673.984	4.23
674.015	8.23
674.046	1.23
674.077	12.23
674.108	-13.77
674.139	2.23
674.17	7.23
674.201	17.23
674.232	-2.77
674.263	-9.77
674.294	5.23
674.325	-3.77
674.356	4.23
674.387	13.23
674.418	13.23
674.449	-3.77
674.48	7.23
674.511	8.23
674.542	-12.77
674.573	-15.77
674.604	11.23
674.635	-3.77
674.666	8.23
674.697	-6.77
674.728	1.23
674.759	-8.77
674.79	-8.77
674.821	-17.77
674.852	5.23
674.883	4.23
674.914	19.23
674.945	-5.77
674.976	-1.77
675.007	4.23
675.038	7.23
675.069	-5.77
675.1	12.23
675.131	14.23
675.162	10.23
675.193	-13.77
675.224	7.23
675.254	9.23
675.285	21.23
675.316	19.23
675.347	5.23
675.378	2.23
675.409	-1.77
675.44	14.23
675.471	17.23
675.502	8.23
675.533	0.23
675.564	-11.77
675.595	-8.77
675.625	8.23
675.656	26.23
675.687	13.23
675.718	-4.77
675.749	5.23
675.78	2.23
675.811	13.23
675.842	7.23
675.873	3.23
675.903	-16.77
675.934	9.23
675.965	-8.77
675.996	-11.77
676.027	1.23
676.058	9.23
676.089	-7.77
676.119	-5.77
676.15	4.23
676.181	11.23
676.212	-5.77
676.243	15.23
676.274	7.23
676.304	19.23
676.335	8.23
676.366	19.23
676.397	14.23
676.428	7.23
676.459	1.23
676.489	0.23
676.52	18.23
676.551	26.23
676.582	-13.77
676.613	7.23
676.643	-1.77
676.674	15.23
676.705	3.23
676.736	22.23
676.767	4.23
676.797	8.23
676.828	12.23
676.859	-8.77
676.89	8.23
676.92	8.23
676.951	14.23
676.982	6.23
677.013	-1.77
677.044	15.23
677.074	8.23
677.105	-14.77
677.136	15.23
677.167	-5.77
677.197	8.23
677.228	-0.77
677.259	-7.77
677.289	11.23
677.32	3.23
677.351	-8.77
677.382	-2.77
677.412	5.23
677.443	6.23
677.474	4.23
677.505	-5.77
677.535	7.23
677.566	3.23
677.597	-2.77
677.627	5.23
677.658	-0.77
677.689	-4.77
677.72	14.23
677.75	3.23
677.781	14.23
677.812	8.23
677.842	7.23
677.873	2.23
677.904	16.23
677.934	-0.77
677.965	-12.77
677.996	6.23
678.026	11.23
678.057	4.23
678.088	-3.77
678.118	7.23
678.149	-22.77
678.18	-5.77
678.21	5.23
678.241	10.23
678.272	-0.77
678.302	10.23
678.333	5.23
678.363	14.23
678.394	-0.77
678.425	10.23
678.455	2.23
678.486	17.23
678.517	5.23
678.547	-7.77
678.578	1.23
678.608	-8.77
678.639	8.23
678.67	12.23
678.7	-1.77
678.731	-6.77
678.761	3.23
678.792	9.23
678.823	4.23
678.853	5.23
678.884	-2.77
678.914	14.23
678.945	16.23
678.975	-6.77
679.006	9.23
679.037	1.23
679.067	30.23
679.098	-1.77
679.128	1.23
679.159	0.23
679.189	11.23
679.22	2.23
679.25	4.23
679.281	1.23
679.312	-11.77
679.342	7.23
679.373	18.23
679.403	-9.77
679.434	9.23
679.464	-0.77
679.495	-2.77
679.525	0.23
679.556	-2.77
679.586	15.23
679.617	23.23
679.647	22.23
679.678	21.23
679.708	2.23
679.739	5.23
679.769	-5.77
679.8	-16.77
679.83	-2.77
679.861	3.23
679.891	-6.77
679.922	-2.77
679.952	10.23
679.983	8.23
680.013	-4.77
680.044	1.23
680.074	1.23
680.105	7.23
680.135	11.23
680.165	24.23
680.196	14.23
680.226	28.23
680.257	8.23
680.287	15.23
680.318	-2.77
680.348	-9.77
680.379	3.23
680.409	10.23
680.439	-6.77
680.47	10.23
680.5	-9.77
680.531	2.23
680.561	7.23
680.592	8.23
680.622	23.23
680.652	15.23
680.683	21.23
680.713	3.23
680.744	-6.77
680.774	-19.77
680.804	31.23
680.835	-2.77
680.865	-7.77
680.896	17.23
680.926	8.23
680.956	1.23
680.987	-2.77
681.017	2.23
681.047	6.23
681.078	13.23
681.108	2.23
681.139	8.23
681.169	20.23
681.199	3.23
681.23	2.23
681.26	8.23
681.29	7.23
681.321	8.23
681.351	5.23
681.381	-21.77
681.412	-1.77
681.442	3.23
681.472	24.23
681.503	12.23
681.533	9.23
681.563	-10.77
681.594	-7.77
681.624	1.23
681.654	11.23
681.685	0.23
681.715	9.23
681.745	8.23
681.775	-2.77
681.806	4.23
681.836	8.23
681.866	9.23
681.897	10.23
681.927	11.23
681.957	-5.77
681.987	7.23
682.018	8.23
682.048	-2.77
682.078	11.23
682.109	17.23
682.139	8.23
682.169	2.23
682.199	7.23
682.23	-3.77
682.26	9.23
682.29	3.23
682.32	7.23
682.351	2.23
682.381	7.23
682.411	2.23
682.441	6.23
682.472	-1.77
682.502	12.23
682.532	2.23
682.562	2.23
682.592	9.23
682.623	21.23
682.653	5.23
682.683	1.23
682.713	5.23
682.743	2.23
682.774	-4.77
682.804	1.23
