Data from HighRes_H2D2_15_04_11_07_2024_HR4C61891__93__15-05-43-742.txt Node

Date: Thu Nov 07 15:05:43 EST 2024
User: crc00042
Spectrometer: HR4C6189
Trigger mode: 4
Integration Time (sec): 1.000000E-1
Scans to average: 1
Electric dark correction enabled: true
Nonlinearity correction enabled: false
Boxcar width: 0
XAxis mode: Wavelengths
Number of Pixels in Spectrum: 3648
>>>>>Begin Spectral Data<<<<<
639.567	-70.38
639.602	-70.38
639.636	-70.38
639.67	-41.38
639.704	-7.38
639.738	9.62
639.773	6.62
639.807	-14.38
639.841	7.62
639.875	8.62
639.909	4.62
639.943	-10.38
639.978	-12.38
640.012	4.62
640.046	3.62
640.08	9.62
640.114	-5.38
640.148	-12.38
640.182	-15.38
640.217	9.62
640.251	23.62
640.285	15.62
640.319	-12.38
640.353	-9.38
640.387	14.62
640.421	-4.38
640.455	-0.38
640.49	7.62
640.524	-1.38
640.558	14.62
640.592	-1.38
640.626	5.62
640.66	7.62
640.694	0.62
640.728	16.62
640.762	13.62
640.796	20.62
640.83	29.62
640.865	14.62
640.899	9.62
640.933	15.62
640.967	-6.38
641.001	3.62
641.035	12.62
641.069	19.62
641.103	-9.38
641.137	-1.38
641.171	1.62
641.205	-1.38
641.239	-1.38
641.273	17.62
641.307	15.62
641.341	15.62
641.375	8.62
641.409	5.62
641.443	6.62
641.477	4.62
641.511	7.62
641.545	9.62
641.579	14.62
641.614	16.62
641.648	15.62
641.682	-7.38
641.716	15.62
641.75	15.62
641.784	-10.38
641.818	8.62
641.852	0.62
641.886	14.62
641.919	10.62
641.953	9.62
641.987	-27.38
642.021	3.62
642.055	4.62
642.089	-0.38
642.123	-25.38
642.157	10.62
642.191	-3.38
642.225	15.62
642.259	13.62
642.293	22.62
642.327	7.62
642.361	4.62
642.395	12.62
642.429	15.62
642.463	16.62
642.497	32.62
642.531	6.62
642.565	7.62
642.599	7.62
642.633	-0.38
642.666	5.62
642.7	14.62
642.734	14.62
642.768	-3.38
642.802	-8.38
642.836	17.62
642.87	6.62
642.904	6.62
642.938	8.62
642.972	1.62
643.005	8.62
643.039	32.62
643.073	12.62
643.107	18.62
643.141	5.62
643.175	14.62
643.209	15.62
643.243	14.62
643.276	21.62
643.31	-1.38
643.344	11.62
643.378	-5.38
643.412	9.62
643.446	23.62
643.48	7.62
643.513	29.62
643.547	3.62
643.581	-3.38
643.615	-0.38
643.649	13.62
643.683	9.62
643.716	-3.38
643.75	14.62
643.784	-13.38
643.818	-0.38
643.852	10.62
643.886	-2.38
643.919	0.62
643.953	-5.38
643.987	6.62
644.021	11.62
644.055	7.62
644.088	-2.38
644.122	-7.38
644.156	12.62
644.19	9.62
644.224	0.62
644.257	-0.38
644.291	20.62
644.325	2.62
644.359	2.62
644.392	24.62
644.426	30.62
644.46	2.62
644.494	12.62
644.527	1.62
644.561	-15.38
644.595	-3.38
644.629	-13.38
644.662	1.62
644.696	12.62
644.73	5.62
644.764	15.62
644.797	9.62
644.831	6.62
644.865	12.62
644.899	-6.38
644.932	17.62
644.966	-0.38
645	3.62
645.033	16.62
645.067	1.62
645.101	18.62
645.135	14.62
645.168	5.62
645.202	-10.38
645.236	1.62
645.269	28.62
645.303	3.62
645.337	7.62
645.37	-5.38
645.404	1.62
645.438	10.62
645.471	1.62
645.505	20.62
645.539	17.62
645.572	4.62
645.606	5.62
645.64	15.62
645.673	17.62
645.707	30.62
645.741	4.62
645.774	-1.38
645.808	13.62
645.842	2.62
645.875	22.62
645.909	-0.38
645.943	6.62
645.976	2.62
646.01	27.62
646.043	20.62
646.077	14.62
646.111	13.62
646.144	22.62
646.178	14.62
646.212	4.62
646.245	10.62
646.279	13.62
646.312	14.62
646.346	14.62
646.38	8.62
646.413	22.62
646.447	3.62
646.48	0.62
646.514	17.62
646.547	4.62
646.581	-10.38
646.615	4.62
646.648	1.62
646.682	3.62
646.715	13.62
646.749	11.62
646.782	13.62
646.816	12.62
646.85	20.62
646.883	5.62
646.917	16.62
646.95	18.62
646.984	2.62
647.017	-1.38
647.051	22.62
647.084	17.62
647.118	-5.38
647.151	1.62
647.185	9.62
647.218	10.62
647.252	12.62
647.285	-5.38
647.319	-0.38
647.353	1.62
647.386	10.62
647.42	17.62
647.453	5.62
647.487	15.62
647.52	-1.38
647.553	6.62
647.587	1.62
647.62	6.62
647.654	7.62
647.687	2.62
647.721	14.62
647.754	1.62
647.788	-3.38
647.821	-3.38
647.855	19.62
647.888	18.62
647.922	15.62
647.955	6.62
647.989	10.62
648.022	8.62
648.055	3.62
648.089	-5.38
648.122	46.62
648.156	5.62
648.189	-6.38
648.223	-1.38
648.256	25.62
648.29	6.62
648.323	-5.38
648.356	-1.38
648.39	27.62
648.423	17.62
648.457	5.62
648.49	26.62
648.523	10.62
648.557	9.62
648.59	12.62
648.624	1.62
648.657	29.62
648.69	7.62
648.724	20.62
648.757	12.62
648.791	29.62
648.824	9.62
648.857	16.62
648.891	1.62
648.924	20.62
648.957	37.62
648.991	-5.38
649.024	18.62
649.057	9.62
649.091	-13.38
649.124	18.62
649.158	-5.38
649.191	16.62
649.224	12.62
649.258	15.62
649.291	15.62
649.324	15.62
649.358	14.62
649.391	2.62
649.424	11.62
649.458	2.62
649.491	7.62
649.524	0.62
649.557	1.62
649.591	-2.38
649.624	1.62
649.657	-12.38
649.691	-0.38
649.724	-2.38
649.757	7.62
649.791	6.62
649.824	15.62
649.857	8.62
649.89	-1.38
649.924	-2.38
649.957	0.62
649.99	-21.38
650.023	-0.38
650.057	3.62
650.09	7.62
650.123	10.62
650.157	17.62
650.19	39.62
650.223	11.62
650.256	4.62
650.29	-1.38
650.323	12.62
650.356	8.62
650.389	-4.38
650.423	-1.38
650.456	0.62
650.489	-4.38
650.522	8.62
650.555	20.62
650.589	28.62
650.622	18.62
650.655	13.62
650.688	15.62
650.721	13.62
650.755	11.62
650.788	31.62
650.821	6.62
650.854	16.62
650.887	-2.38
650.921	0.62
650.954	-1.38
650.987	-6.38
651.02	5.62
651.053	-5.38
651.087	-8.38
651.12	30.62
651.153	17.62
651.186	0.62
651.219	-3.38
651.252	13.62
651.286	7.62
651.319	-8.38
651.352	-0.38
651.385	6.62
651.418	4.62
651.451	31.62
651.484	11.62
651.518	-1.38
651.551	35.62
651.584	6.62
651.617	39.62
651.65	20.62
651.683	36.62
651.716	4.62
651.749	-0.38
651.783	13.62
651.816	8.62
651.849	6.62
651.882	12.62
651.915	-0.38
651.948	22.62
651.981	-2.38
652.014	-0.38
652.047	-1.38
652.08	5.62
652.114	0.62
652.147	-10.38
652.18	14.62
652.213	35.62
652.246	8.62
652.279	18.62
652.312	35.62
652.345	22.62
652.378	16.62
652.411	24.62
652.444	14.62
652.477	12.62
652.51	-0.38
652.543	-9.38
652.576	4.62
652.609	7.62
652.642	27.62
652.675	30.62
652.709	6.62
652.742	10.62
652.775	3.62
652.808	14.62
652.841	21.62
652.874	11.62
652.907	3.62
652.94	1.62
652.973	-16.38
653.006	-6.38
653.039	14.62
653.072	4.62
653.105	14.62
653.138	-17.38
653.171	-2.38
653.204	13.62
653.237	18.62
653.27	-2.38
653.303	19.62
653.336	13.62
653.368	22.62
653.401	12.62
653.434	2.62
653.467	13.62
653.5	-0.38
653.533	-1.38
653.566	-7.38
653.599	3.62
653.632	-13.38
653.665	12.62
653.698	-12.38
653.731	-3.38
653.764	22.62
653.797	5.62
653.83	-2.38
653.863	2.62
653.896	0.62
653.929	15.62
653.961	8.62
653.994	-11.38
654.027	2.62
654.06	7.62
654.093	11.62
654.126	12.62
654.159	-1.38
654.192	9.62
654.225	8.62
654.258	13.62
654.29	2.62
654.323	13.62
654.356	-0.38
654.389	-1.38
654.422	14.62
654.455	6.62
654.488	8.62
654.521	-3.38
654.553	-4.38
654.586	17.62
654.619	-7.38
654.652	4.62
654.685	4.62
654.718	16.62
654.751	7.62
654.783	-0.38
654.816	31.62
654.849	12.62
654.882	-1.38
654.915	-20.38
654.948	9.62
654.98	5.62
655.013	11.62
655.046	-15.38
655.079	-7.38
655.112	11.62
655.144	-5.38
655.177	24.62
655.21	38.62
655.243	35.62
655.276	20.62
655.308	4.62
655.341	5.62
655.374	30.62
655.407	3.62
655.44	-7.38
655.472	24.62
655.505	11.62
655.538	-1.38
655.571	16.62
655.603	13.62
655.636	10.62
655.669	24.62
655.702	18.62
655.734	-1.38
655.767	19.62
655.8	22.62
655.833	15.62
655.865	13.62
655.898	14.62
655.931	27.62
655.964	43.62
655.996	39.62
656.029	43.62
656.062	27.62
656.095	49.62
656.127	79.62
656.16	229.62
656.193	630.62
656.225	954.62
656.258	574.62
656.291	237.62
656.324	183.62
656.356	354.62
656.389	777.62
656.422	678.62
656.454	240.62
656.487	84.62
656.52	40.62
656.552	27.62
656.585	19.62
656.618	13.62
656.65	27.62
656.683	-2.38
656.716	4.62
656.748	-0.38
656.781	-9.38
656.814	-10.38
656.846	14.62
656.879	9.62
656.912	14.62
656.944	-6.38
656.977	-13.38
657.01	6.62
657.042	11.62
657.075	5.62
657.108	10.62
657.14	9.62
657.173	17.62
657.205	45.62
657.238	16.62
657.271	-1.38
657.303	2.62
657.336	9.62
657.369	2.62
657.401	5.62
657.434	5.62
657.466	12.62
657.499	4.62
657.532	13.62
657.564	3.62
657.597	6.62
657.629	18.62
657.662	12.62
657.694	-0.38
657.727	0.62
657.76	21.62
657.792	-0.38
657.825	8.62
657.857	7.62
657.89	8.62
657.922	-2.38
657.955	4.62
657.987	2.62
658.02	17.62
658.053	22.62
658.085	6.62
658.118	5.62
658.15	18.62
658.183	10.62
658.215	-2.38
658.248	3.62
658.28	-5.38
658.313	26.62
658.345	16.62
658.378	0.62
658.41	3.62
658.443	26.62
658.475	14.62
658.508	3.62
658.54	1.62
658.573	-0.38
658.605	6.62
658.638	8.62
658.67	15.62
658.703	19.62
658.735	10.62
658.768	11.62
658.8	-3.38
658.833	21.62
658.865	2.62
658.898	2.62
658.93	-5.38
658.963	6.62
658.995	4.62
659.028	11.62
659.06	3.62
659.092	-7.38
659.125	1.62
659.157	8.62
659.19	-4.38
659.222	20.62
659.255	-3.38
659.287	12.62
659.32	1.62
659.352	6.62
659.384	3.62
659.417	0.62
659.449	6.62
659.482	12.62
659.514	-14.38
659.546	10.62
659.579	13.62
659.611	5.62
659.644	7.62
659.676	-12.38
659.708	3.62
659.741	-12.38
659.773	12.62
659.806	30.62
659.838	12.62
659.87	19.62
659.903	-11.38
659.935	9.62
659.967	-11.38
660	14.62
660.032	11.62
660.065	20.62
660.097	12.62
660.129	7.62
660.162	10.62
660.194	32.62
660.226	6.62
660.259	17.62
660.291	-2.38
660.323	-9.38
660.356	-17.38
660.388	-7.38
660.42	16.62
660.453	7.62
660.485	10.62
660.517	15.62
660.55	20.62
660.582	4.62
660.614	0.62
660.647	-9.38
660.679	-12.38
660.711	32.62
660.743	-0.38
660.776	-6.38
660.808	-2.38
660.84	6.62
660.873	14.62
660.905	-8.38
660.937	6.62
660.969	3.62
661.002	-9.38
661.034	17.62
661.066	4.62
661.099	12.62
661.131	3.62
661.163	18.62
661.195	3.62
661.228	14.62
661.26	5.62
661.292	-4.38
661.324	-6.38
661.357	21.62
661.389	15.62
661.421	14.62
661.453	2.62
661.485	8.62
661.518	15.62
661.55	1.62
661.582	-14.38
661.614	-3.38
661.647	18.62
661.679	19.62
661.711	32.62
661.743	14.62
661.775	10.62
661.808	25.62
661.84	-10.38
661.872	13.62
661.904	4.62
661.936	13.62
661.969	-13.38
662.001	6.62
662.033	-3.38
662.065	5.62
662.097	16.62
662.129	20.62
662.162	9.62
662.194	14.62
662.226	5.62
662.258	4.62
662.29	10.62
662.322	-9.38
662.355	-14.38
662.387	6.62
662.419	6.62
662.451	11.62
662.483	9.62
662.515	-7.38
662.547	7.62
662.58	-3.38
662.612	10.62
662.644	9.62
662.676	-11.38
662.708	5.62
662.74	-13.38
662.772	13.62
662.804	14.62
662.836	25.62
662.869	4.62
662.901	13.62
662.933	12.62
662.965	15.62
662.997	16.62
663.029	5.62
663.061	5.62
663.093	-5.38
663.125	10.62
663.157	5.62
663.189	12.62
663.221	4.62
663.254	22.62
663.286	15.62
663.318	-3.38
663.35	-6.38
663.382	-0.38
663.414	-18.38
663.446	28.62
663.478	10.62
663.51	19.62
663.542	-12.38
663.574	-2.38
663.606	19.62
663.638	3.62
663.67	5.62
663.702	-0.38
663.734	16.62
663.766	-7.38
663.798	-15.38
663.83	1.62
663.862	9.62
663.894	19.62
663.926	14.62
663.958	14.62
663.99	3.62
664.022	5.62
664.054	14.62
664.086	4.62
664.118	-7.38
664.15	-12.38
664.182	17.62
664.214	22.62
664.246	4.62
664.278	3.62
664.31	17.62
664.342	4.62
664.374	1.62
664.406	20.62
664.438	-1.38
664.47	13.62
664.502	1.62
664.534	1.62
664.566	-18.38
664.598	13.62
664.63	-9.38
664.662	13.62
664.693	12.62
664.725	4.62
664.757	12.62
664.789	-5.38
664.821	5.62
664.853	21.62
664.885	0.62
664.917	7.62
664.949	23.62
664.981	18.62
665.013	34.62
665.045	8.62
665.076	3.62
665.108	18.62
665.14	6.62
665.172	5.62
665.204	2.62
665.236	17.62
665.268	17.62
665.3	-9.38
665.331	-6.38
665.363	6.62
665.395	11.62
665.427	6.62
665.459	1.62
665.491	-14.38
665.523	17.62
665.555	15.62
665.586	6.62
665.618	1.62
665.65	14.62
665.682	20.62
665.714	23.62
665.746	0.62
665.777	18.62
665.809	-0.38
665.841	11.62
665.873	-17.38
665.905	0.62
665.937	12.62
665.968	10.62
666	6.62
666.032	10.62
666.064	13.62
666.096	8.62
666.127	16.62
666.159	22.62
666.191	8.62
666.223	4.62
666.255	10.62
666.286	8.62
666.318	8.62
666.35	10.62
666.382	18.62
666.413	5.62
666.445	-9.38
666.477	-8.38
666.509	-8.38
666.54	14.62
666.572	7.62
666.604	-3.38
666.636	-4.38
666.667	35.62
666.699	12.62
666.731	8.62
666.763	7.62
666.794	0.62
666.826	15.62
666.858	-11.38
666.89	19.62
666.921	0.62
666.953	2.62
666.985	27.62
667.017	32.62
667.048	0.62
667.08	6.62
667.112	-8.38
667.143	-5.38
667.175	7.62
667.207	24.62
667.238	14.62
667.27	7.62
667.302	20.62
667.334	3.62
667.365	13.62
667.397	19.62
667.429	0.62
667.46	19.62
667.492	31.62
667.524	13.62
667.555	-1.38
667.587	15.62
667.619	1.62
667.65	-2.38
667.682	12.62
667.714	18.62
667.745	7.62
667.777	15.62
667.808	21.62
667.84	13.62
667.872	1.62
667.903	27.62
667.935	7.62
667.967	1.62
667.998	11.62
668.03	1.62
668.061	2.62
668.093	0.62
668.125	14.62
668.156	-3.38
668.188	13.62
668.22	3.62
668.251	4.62
668.283	13.62
668.314	14.62
668.346	-18.38
668.377	0.62
668.409	-12.38
668.441	8.62
668.472	11.62
668.504	13.62
668.535	13.62
668.567	20.62
668.599	3.62
668.63	2.62
668.662	1.62
668.693	15.62
668.725	9.62
668.756	14.62
668.788	1.62
668.819	4.62
668.851	18.62
668.882	6.62
668.914	8.62
668.946	5.62
668.977	-10.38
669.009	3.62
669.04	-19.38
669.072	-4.38
669.103	-4.38
669.135	9.62
669.166	1.62
669.198	21.62
669.229	19.62
669.261	3.62
669.292	1.62
669.324	12.62
669.355	24.62
669.387	-2.38
669.418	18.62
669.45	1.62
669.481	9.62
669.513	26.62
669.544	23.62
669.576	-0.38
669.607	25.62
669.639	17.62
669.67	6.62
669.701	0.62
669.733	-2.38
669.764	7.62
669.796	-1.38
669.827	6.62
669.859	-4.38
669.89	27.62
669.922	11.62
669.953	17.62
669.985	7.62
670.016	10.62
670.047	5.62
670.079	-4.38
670.11	1.62
670.142	11.62
670.173	-8.38
670.204	7.62
670.236	3.62
670.267	1.62
670.299	18.62
670.33	16.62
670.362	10.62
670.393	-13.38
670.424	0.62
670.456	-16.38
670.487	6.62
670.518	12.62
670.55	19.62
670.581	8.62
670.613	13.62
670.644	13.62
670.675	11.62
670.707	-7.38
670.738	13.62
670.769	0.62
670.801	-5.38
670.832	13.62
670.864	-11.38
670.895	10.62
670.926	9.62
670.958	4.62
670.989	4.62
671.02	2.62
671.052	-9.38
671.083	6.62
671.114	0.62
671.146	21.62
671.177	28.62
671.208	16.62
671.24	6.62
671.271	-15.38
671.302	10.62
671.333	-15.38
671.365	-4.38
671.396	-1.38
671.427	15.62
671.459	15.62
671.49	11.62
671.521	-7.38
671.553	6.62
671.584	32.62
671.615	21.62
671.646	9.62
671.678	2.62
671.709	-9.38
671.74	1.62
671.771	-0.38
671.803	-6.38
671.834	20.62
671.865	12.62
671.896	17.62
671.928	9.62
671.959	-2.38
671.99	4.62
672.021	4.62
672.053	15.62
672.084	16.62
672.115	8.62
672.146	18.62
672.178	5.62
672.209	13.62
672.24	24.62
672.271	16.62
672.303	25.62
672.334	6.62
672.365	11.62
672.396	18.62
672.427	5.62
672.459	-1.38
672.49	23.62
672.521	24.62
672.552	24.62
672.583	13.62
672.615	19.62
672.646	25.62
672.677	12.62
672.708	-5.38
672.739	6.62
672.77	21.62
672.802	9.62
672.833	0.62
672.864	-4.38
672.895	9.62
672.926	14.62
672.957	2.62
672.989	13.62
673.02	17.62
673.051	5.62
673.082	24.62
673.113	14.62
673.144	6.62
673.175	1.62
673.206	-3.38
673.238	12.62
673.269	3.62
673.3	-4.38
673.331	22.62
673.362	7.62
673.393	0.62
673.424	11.62
673.455	19.62
673.487	9.62
673.518	12.62
673.549	9.62
673.58	-1.38
673.611	1.62
673.642	-2.38
673.673	-5.38
673.704	-1.38
673.735	3.62
673.766	4.62
673.797	-10.38
673.828	7.62
673.86	-21.38
673.891	-0.38
673.922	-5.38
673.953	-5.38
673.984	0.62
674.015	16.62
674.046	24.62
674.077	6.62
674.108	4.62
674.139	4.62
674.17	-0.38
674.201	-1.38
674.232	11.62
674.263	5.62
674.294	0.62
674.325	0.62
674.356	6.62
674.387	21.62
674.418	19.62
674.449	11.62
674.48	4.62
674.511	7.62
674.542	18.62
674.573	-10.38
674.604	14.62
674.635	20.62
674.666	6.62
674.697	2.62
674.728	3.62
674.759	-1.38
674.79	-1.38
674.821	4.62
674.852	15.62
674.883	-4.38
674.914	7.62
674.945	7.62
674.976	3.62
675.007	-5.38
675.038	6.62
675.069	-3.38
675.1	1.62
675.131	11.62
675.162	-1.38
675.193	-1.38
675.224	-1.38
675.254	14.62
675.285	10.62
675.316	10.62
675.347	2.62
675.378	-0.38
675.409	-12.38
675.44	7.62
675.471	14.62
675.502	-1.38
675.533	-9.38
675.564	3.62
675.595	0.62
675.625	29.62
675.656	13.62
675.687	18.62
675.718	-1.38
675.749	14.62
675.78	13.62
675.811	6.62
675.842	15.62
675.873	3.62
675.903	4.62
675.934	-1.38
675.965	-5.38
675.996	15.62
676.027	19.62
676.058	12.62
676.089	-1.38
676.119	10.62
676.15	7.62
676.181	12.62
676.212	22.62
676.243	11.62
676.274	-1.38
676.304	1.62
676.335	7.62
676.366	11.62
676.397	6.62
676.428	7.62
676.459	0.62
676.489	9.62
676.52	11.62
676.551	-13.38
676.582	0.62
676.613	-3.38
676.643	5.62
676.674	26.62
676.705	8.62
676.736	16.62
676.767	17.62
676.797	17.62
676.828	4.62
676.859	-5.38
676.89	-3.38
676.92	-3.38
676.951	-4.38
676.982	9.62
677.013	1.62
677.044	29.62
677.074	17.62
677.105	-7.38
677.136	13.62
677.167	14.62
677.197	13.62
677.228	11.62
677.259	17.62
677.289	5.62
677.32	-0.38
677.351	2.62
677.382	-0.38
677.412	-6.38
677.443	14.62
677.474	-1.38
677.505	7.62
677.535	12.62
677.566	2.62
677.597	-4.38
677.627	5.62
677.658	7.62
677.689	4.62
677.72	6.62
677.75	13.62
677.781	-3.38
677.812	5.62
677.842	13.62
677.873	10.62
677.904	6.62
677.934	3.62
677.965	-0.38
677.996	-12.38
678.026	-2.38
678.057	18.62
678.088	1.62
678.118	1.62
678.149	9.62
678.18	10.62
678.21	8.62
678.241	3.62
678.272	11.62
678.302	14.62
678.333	2.62
678.363	22.62
678.394	5.62
678.425	5.62
678.455	-11.38
678.486	8.62
678.517	12.62
678.547	-4.38
678.578	3.62
678.608	0.62
678.639	20.62
678.67	12.62
678.7	-1.38
678.731	1.62
678.761	10.62
678.792	3.62
678.823	4.62
678.853	10.62
678.884	2.62
678.914	22.62
678.945	11.62
678.975	-3.38
679.006	18.62
679.037	14.62
679.067	19.62
679.098	-4.38
679.128	-5.38
679.159	21.62
679.189	29.62
679.22	-0.38
679.25	24.62
679.281	-9.38
679.312	3.62
679.342	17.62
679.373	36.62
679.403	13.62
679.434	14.62
679.464	10.62
679.495	6.62
679.525	7.62
679.556	4.62
679.586	7.62
679.617	7.62
679.647	-6.38
679.678	-0.38
679.708	9.62
679.739	6.62
679.769	-12.38
679.8	-8.38
679.83	12.62
679.861	13.62
679.891	4.62
679.922	-19.38
679.952	12.62
679.983	14.62
680.013	19.62
680.044	-0.38
680.074	7.62
680.105	19.62
680.135	15.62
680.165	29.62
680.196	9.62
680.226	18.62
680.257	11.62
680.287	15.62
680.318	16.62
680.348	3.62
680.379	4.62
680.409	9.62
680.439	-9.38
680.47	-5.38
680.5	1.62
680.531	21.62
680.561	16.62
680.592	10.62
680.622	28.62
680.652	14.62
680.683	13.62
680.713	6.62
680.744	-6.38
680.774	1.62
680.804	23.62
680.835	-1.38
680.865	-2.38
680.896	18.62
680.926	25.62
680.956	1.62
680.987	1.62
681.017	9.62
681.047	-0.38
681.078	-3.38
681.108	23.62
681.139	5.62
681.169	-0.38
681.199	-4.38
681.23	8.62
681.26	9.62
681.29	6.62
681.321	11.62
681.351	1.62
681.381	-2.38
681.412	4.62
681.442	12.62
681.472	30.62
681.503	3.62
681.533	14.62
681.563	1.62
681.594	7.62
681.624	10.62
681.654	-2.38
681.685	13.62
681.715	21.62
681.745	15.62
681.775	5.62
681.806	7.62
681.836	5.62
681.866	9.62
681.897	3.62
681.927	-5.38
681.957	-17.38
681.987	12.62
682.018	8.62
682.048	-0.38
682.078	16.62
682.109	31.62
682.139	14.62
682.169	9.62
682.199	8.62
682.23	5.62
682.26	15.62
682.29	9.62
682.32	7.62
682.351	11.62
682.381	11.62
682.411	9.62
682.441	4.62
682.472	12.62
682.502	-15.38
682.532	-8.38
682.562	0.62
682.592	14.62
682.623	5.62
682.653	5.62
682.683	-5.38
682.713	6.62
682.743	6.62
