Data from LowRes_H2_15_26_11_07_2024_HR4C61881__0__15-28-13-637.txt Node

Date: Thu Nov 07 15:28:13 EST 2024
User: crc00042
Spectrometer: HR4C6188
Trigger mode: 4
Integration Time (sec): 1.000000E-1
Scans to average: 1
Electric dark correction enabled: true
Nonlinearity correction enabled: false
Boxcar width: 0
XAxis mode: Wavelengths
Number of Pixels in Spectrum: 3648
>>>>>Begin Spectral Data<<<<<
245.66	-93.15
245.797	-93.15
245.934	-93.15
246.071	-86.15
246.208	11.85
246.344	5.85
246.481	-1.15
246.618	-16.15
246.755	5.85
246.892	-3.15
247.029	1.85
247.165	-4.15
247.302	12.85
247.439	9.85
247.576	0.85
247.713	-16.15
247.849	34.85
247.986	-31.15
248.123	7.85
248.26	-1.15
248.396	17.85
248.533	-4.15
248.67	-26.15
248.806	9.85
248.943	-14.15
249.08	0.85
249.216	0.85
249.353	-8.15
249.49	-8.15
249.626	-3.15
249.763	-7.15
249.9	-7.15
250.036	13.85
250.173	1.85
250.309	-1.15
250.446	-0.15
250.582	-8.15
250.719	-12.15
250.856	-22.15
250.992	-20.15
251.129	-15.15
251.265	-19.15
251.402	26.85
251.538	-7.15
251.675	6.85
251.811	5.85
251.948	21.85
252.084	9.85
252.221	6.85
252.357	-13.15
252.493	14.85
252.63	0.85
252.766	22.85
252.903	-8.15
253.039	-7.15
253.175	-2.15
253.312	1.85
253.448	-3.15
253.585	-10.15
253.721	16.85
253.857	-8.15
253.994	7.85
254.13	4.85
254.266	3.85
254.403	-11.15
254.539	15.85
254.675	-0.15
254.811	-6.15
254.948	5.85
255.084	3.85
255.22	8.85
255.356	1.85
255.493	-2.15
255.629	-7.15
255.765	3.85
255.901	11.85
256.037	-12.15
256.174	0.85
256.31	-9.15
256.446	1.85
256.582	6.85
256.718	9.85
256.854	1.85
256.991	3.85
257.127	27.85
257.263	-2.15
257.399	-6.15
257.535	-6.15
257.671	-4.15
257.807	-12.15
257.943	-10.15
258.079	1.85
258.215	-10.15
258.351	5.85
258.487	11.85
258.623	45.85
258.759	1.85
258.895	0.85
259.031	12.85
259.167	-12.15
259.303	10.85
259.439	0.85
259.575	9.85
259.711	-14.15
259.847	0.85
259.983	7.85
260.119	-7.15
260.255	0.85
260.391	6.85
260.527	-6.15
260.663	11.85
260.799	9.85
260.934	-9.15
261.07	-3.15
261.206	-22.15
261.342	-6.15
261.478	14.85
261.614	-2.15
261.749	-20.15
261.885	3.85
262.021	-2.15
262.157	24.85
262.293	-7.15
262.428	-8.15
262.564	7.85
262.7	14.85
262.836	-2.15
262.971	6.85
263.107	3.85
263.243	10.85
263.378	-7.15
263.514	-29.15
263.65	-4.15
263.785	-22.15
263.921	-19.15
264.057	-12.15
264.192	6.85
264.328	14.85
264.464	-0.15
264.599	11.85
264.735	5.85
264.871	-20.15
265.006	6.85
265.142	5.85
265.277	2.85
265.413	10.85
265.548	-4.15
265.684	22.85
265.819	-0.15
265.955	-16.15
266.091	-22.15
266.226	-24.15
266.362	12.85
266.497	9.85
266.633	-0.15
266.768	-9.15
266.903	-5.15
267.039	12.85
267.174	19.85
267.31	10.85
267.445	6.85
267.581	-6.15
267.716	8.85
267.851	16.85
267.987	21.85
268.122	23.85
268.258	-2.15
268.393	-11.15
268.528	1.85
268.664	-9.15
268.799	-16.15
268.934	-2.15
269.07	-0.15
269.205	-4.15
269.34	20.85
269.476	11.85
269.611	3.85
269.746	29.85
269.881	-1.15
270.017	12.85
270.152	-10.15
270.287	15.85
270.422	17.85
270.558	-1.15
270.693	-7.15
270.828	-13.15
270.963	-15.15
271.098	-9.15
271.234	-10.15
271.369	17.85
271.504	-6.15
271.639	-14.15
271.774	-5.15
271.909	5.85
272.045	-27.15
272.18	0.85
272.315	-10.15
272.45	23.85
272.585	-23.15
272.72	-2.15
272.855	-10.15
272.99	3.85
273.125	-12.15
273.26	6.85
273.395	-18.15
273.53	-11.15
273.665	27.85
273.8	1.85
273.935	-5.15
274.07	-16.15
274.205	-18.15
274.34	4.85
274.475	-0.15
274.61	21.85
274.745	8.85
274.88	10.85
275.015	-16.15
275.15	-2.15
275.285	12.85
275.42	3.85
275.555	15.85
275.69	16.85
275.825	-2.15
275.959	21.85
276.094	2.85
276.229	-3.15
276.364	-12.15
276.499	-16.15
276.634	-7.15
276.768	2.85
276.903	9.85
277.038	22.85
277.173	-7.15
277.308	-6.15
277.442	7.85
277.577	-13.15
277.712	-6.15
277.847	12.85
277.981	6.85
278.116	-18.15
278.251	6.85
278.386	27.85
278.52	-3.15
278.655	-6.15
278.79	4.85
278.924	-5.15
279.059	5.85
279.194	-3.15
279.328	23.85
279.463	-4.15
279.598	17.85
279.732	20.85
279.867	8.85
280.001	20.85
280.136	4.85
280.271	19.85
280.405	-1.15
280.54	6.85
280.674	-12.15
280.809	13.85
280.943	2.85
281.078	5.85
281.213	16.85
281.347	23.85
281.482	-1.15
281.616	16.85
281.751	7.85
281.885	-1.15
282.02	-4.15
282.154	9.85
282.288	-26.15
282.423	-5.15
282.557	-9.15
282.692	19.85
282.826	5.85
282.961	11.85
283.095	-8.15
283.229	0.85
283.364	-4.15
283.498	10.85
283.633	16.85
283.767	14.85
283.901	10.85
284.036	4.85
284.17	22.85
284.304	0.85
284.439	8.85
284.573	3.85
284.707	9.85
284.842	6.85
284.976	7.85
285.11	-21.15
285.244	4.85
285.379	52.85
285.513	-14.15
285.647	13.85
285.781	10.85
285.916	3.85
286.05	4.85
286.184	25.85
286.318	26.85
286.453	-3.15
286.587	-9.15
286.721	-8.15
286.855	2.85
286.989	17.85
287.123	-23.15
287.258	-23.15
287.392	1.85
287.526	17.85
287.66	-8.15
287.794	-5.15
287.928	8.85
288.062	11.85
288.196	-6.15
288.33	17.85
288.464	33.85
288.598	10.85
288.733	-13.15
288.867	18.85
289.001	22.85
289.135	7.85
289.269	-1.15
289.403	-5.15
289.537	6.85
289.671	9.85
289.805	-3.15
289.939	-12.15
290.073	0.85
290.207	24.85
290.34	-3.15
290.474	3.85
290.608	-0.15
290.742	-1.15
290.876	-6.15
291.01	-5.15
291.144	14.85
291.278	20.85
291.412	-1.15
291.546	21.85
291.679	-6.15
291.813	13.85
291.947	3.85
292.081	-5.15
292.215	8.85
292.349	13.85
292.482	3.85
292.616	-5.15
292.75	14.85
292.884	2.85
293.018	6.85
293.151	-7.15
293.285	-6.15
293.419	-10.15
293.553	-6.15
293.686	-16.15
293.82	11.85
293.954	13.85
294.088	34.85
294.221	-4.15
294.355	4.85
294.489	-4.15
294.622	-14.15
294.756	-14.15
294.89	3.85
295.023	10.85
295.157	23.85
295.291	19.85
295.424	33.85
295.558	-4.15
295.691	-6.15
295.825	-4.15
295.959	-2.15
296.092	-13.15
296.226	6.85
296.359	7.85
296.493	1.85
296.627	0.85
296.76	-11.15
296.894	5.85
297.027	5.85
297.161	14.85
297.294	-15.15
297.428	12.85
297.561	40.85
297.695	3.85
297.828	-0.15
297.962	2.85
298.095	-23.15
298.229	2.85
298.362	-11.15
298.495	-10.15
298.629	0.85
298.762	9.85
298.896	9.85
299.029	4.85
299.162	10.85
299.296	4.85
299.429	2.85
299.563	-0.15
299.696	1.85
299.829	6.85
299.963	26.85
300.096	13.85
300.229	2.85
300.363	6.85
300.496	13.85
300.629	-7.15
300.763	8.85
300.896	10.85
301.029	-1.15
301.162	5.85
301.296	3.85
301.429	-9.15
301.562	-21.15
301.695	9.85
301.829	2.85
301.962	9.85
302.095	6.85
302.228	-19.15
302.362	5.85
302.495	0.85
302.628	10.85
302.761	-8.15
302.894	9.85
303.027	41.85
303.161	-7.15
303.294	6.85
303.427	-0.15
303.56	8.85
303.693	20.85
303.826	21.85
303.959	8.85
304.092	-18.15
304.225	-6.15
304.359	16.85
304.492	1.85
304.625	-4.15
304.758	20.85
304.891	1.85
305.024	0.85
305.157	-0.15
305.29	-21.15
305.423	7.85
305.556	0.85
305.689	9.85
305.822	-3.15
305.955	11.85
306.088	-10.15
306.221	-5.15
306.354	-7.15
306.487	-3.15
306.62	-14.15
306.752	-21.15
306.885	-1.15
307.018	1.85
307.151	6.85
307.284	21.85
307.417	-8.15
307.55	-0.15
307.683	-13.15
307.816	6.85
307.948	7.85
308.081	10.85
308.214	-2.15
308.347	12.85
308.48	-10.15
308.613	1.85
308.745	-1.15
308.878	16.85
309.011	-1.15
309.144	15.85
309.277	2.85
309.409	-8.15
309.542	-7.15
309.675	14.85
309.808	-5.15
309.94	23.85
310.073	-5.15
310.206	-13.15
310.339	2.85
310.471	10.85
310.604	5.85
310.737	-9.15
310.869	1.85
311.002	-2.15
311.135	2.85
311.267	-6.15
311.4	-9.15
311.533	9.85
311.665	-4.15
311.798	2.85
311.93	20.85
312.063	29.85
312.196	10.85
312.328	4.85
312.461	1.85
312.593	13.85
312.726	-9.15
312.859	4.85
312.991	15.85
313.124	-14.15
313.256	18.85
313.389	3.85
313.521	-5.15
313.654	-0.15
313.786	5.85
313.919	4.85
314.051	4.85
314.184	10.85
314.316	16.85
314.449	0.85
314.581	-1.15
314.714	10.85
314.846	8.85
314.978	-10.15
315.111	9.85
315.243	18.85
315.376	1.85
315.508	10.85
315.641	-0.15
315.773	33.85
315.905	5.85
316.038	6.85
316.17	-6.15
316.302	5.85
316.435	3.85
316.567	10.85
316.699	38.85
316.832	6.85
316.964	-14.15
317.096	-9.15
317.229	6.85
317.361	-31.15
317.493	-2.15
317.625	-21.15
317.758	-6.15
317.89	15.85
318.022	-2.15
318.155	-11.15
318.287	-2.15
318.419	0.85
318.551	0.85
318.683	6.85
318.816	2.85
318.948	-4.15
319.08	-10.15
319.212	-4.15
319.344	-6.15
319.477	15.85
319.609	-2.15
319.741	5.85
319.873	2.85
320.005	-4.15
320.137	16.85
320.269	5.85
320.401	9.85
320.534	0.85
320.666	-25.15
320.798	-3.15
320.93	-15.15
321.062	-11.15
321.194	-8.15
321.326	5.85
321.458	4.85
321.59	2.85
321.722	0.85
321.854	9.85
321.986	2.85
322.118	6.85
322.25	11.85
322.382	1.85
322.514	-10.15
322.646	-18.15
322.778	4.85
322.91	7.85
323.042	10.85
323.174	7.85
323.306	-11.15
323.438	-5.15
323.57	0.85
323.702	12.85
323.834	-18.15
323.966	-21.15
324.097	-6.15
324.229	-5.15
324.361	3.85
324.493	8.85
324.625	-2.15
324.757	21.85
324.889	14.85
325.021	16.85
325.152	22.85
325.284	22.85
325.416	-5.15
325.548	24.85
325.68	3.85
325.811	14.85
325.943	11.85
326.075	-19.15
326.207	-0.15
326.339	-7.15
326.47	-0.15
326.602	8.85
326.734	26.85
326.866	21.85
326.997	-5.15
327.129	-4.15
327.261	-16.15
327.392	-0.15
327.524	5.85
327.656	17.85
327.787	5.85
327.919	1.85
328.051	17.85
328.182	22.85
328.314	26.85
328.446	6.85
328.577	28.85
328.709	21.85
328.841	-21.15
328.972	-13.15
329.104	-12.15
329.235	-6.15
329.367	-3.15
329.499	-5.15
329.63	12.85
329.762	-0.15
329.893	12.85
330.025	6.85
330.156	-14.15
330.288	16.85
330.419	7.85
330.551	8.85
330.683	4.85
330.814	-2.15
330.946	5.85
331.077	5.85
331.208	-0.15
331.34	-13.15
331.471	-16.15
331.603	12.85
331.734	0.85
331.866	-0.15
331.997	3.85
332.129	1.85
332.26	-2.15
332.392	26.85
332.523	1.85
332.654	-5.15
332.786	1.85
332.917	-3.15
333.048	11.85
333.18	6.85
333.311	-2.15
333.443	10.85
333.574	20.85
333.705	20.85
333.837	-6.15
333.968	-8.15
334.099	8.85
334.231	17.85
334.362	1.85
334.493	16.85
334.624	3.85
334.756	4.85
334.887	1.85
335.018	0.85
335.15	17.85
335.281	-8.15
335.412	20.85
335.543	11.85
335.675	1.85
335.806	-6.15
335.937	-0.15
336.068	6.85
336.199	32.85
336.331	0.85
336.462	-7.15
336.593	0.85
336.724	1.85
336.855	4.85
336.986	9.85
337.118	16.85
337.249	6.85
337.38	11.85
337.511	0.85
337.642	-4.15
337.773	14.85
337.904	5.85
338.035	6.85
338.166	-10.15
338.298	14.85
338.429	6.85
338.56	13.85
338.691	13.85
338.822	7.85
338.953	2.85
339.084	6.85
339.215	11.85
339.346	3.85
339.477	12.85
339.608	8.85
339.739	-8.15
339.87	-3.15
340.001	-0.15
340.132	8.85
340.263	2.85
340.394	13.85
340.525	8.85
340.656	-24.15
340.787	-22.15
340.918	33.85
341.049	12.85
341.179	5.85
341.31	1.85
341.441	9.85
341.572	11.85
341.703	9.85
341.834	-3.15
341.965	-3.15
342.096	7.85
342.227	11.85
342.357	9.85
342.488	1.85
342.619	0.85
342.75	-1.15
342.881	-0.15
343.012	5.85
343.142	17.85
343.273	-21.15
343.404	5.85
343.535	44.85
343.666	21.85
343.796	14.85
343.927	19.85
344.058	9.85
344.189	8.85
344.319	23.85
344.45	10.85
344.581	3.85
344.712	-16.15
344.842	14.85
344.973	16.85
345.104	9.85
345.234	-0.15
345.365	-9.15
345.496	4.85
345.626	12.85
345.757	10.85
345.888	-8.15
346.018	13.85
346.149	-4.15
346.28	8.85
346.41	5.85
346.541	-4.15
346.672	-10.15
346.802	9.85
346.933	6.85
347.063	15.85
347.194	-1.15
347.325	0.85
347.455	18.85
347.586	7.85
347.716	-8.15
347.847	6.85
347.977	10.85
348.108	24.85
348.238	25.85
348.369	8.85
348.499	28.85
348.63	5.85
348.76	-3.15
348.891	-1.15
349.021	17.85
349.152	3.85
349.282	1.85
349.413	0.85
349.543	21.85
349.674	0.85
349.804	11.85
349.935	-3.15
350.065	-13.15
350.196	-7.15
350.326	11.85
350.456	5.85
350.587	31.85
350.717	23.85
350.848	8.85
350.978	17.85
351.108	-2.15
351.239	24.85
351.369	-3.15
351.499	10.85
351.63	23.85
351.76	17.85
351.89	4.85
352.021	3.85
352.151	-3.15
352.281	13.85
352.412	3.85
352.542	8.85
352.672	6.85
352.803	3.85
352.933	3.85
353.063	-7.15
353.193	15.85
353.324	10.85
353.454	12.85
353.584	32.85
353.714	-0.15
353.845	0.85
353.975	5.85
354.105	-13.15
354.235	9.85
354.365	17.85
354.496	16.85
354.626	18.85
354.756	-3.15
354.886	-6.15
355.016	4.85
355.146	4.85
355.277	10.85
355.407	8.85
355.537	-0.15
355.667	9.85
355.797	-6.15
355.927	-2.15
356.057	11.85
356.187	-29.15
356.318	-3.15
356.448	20.85
356.578	-2.15
356.708	14.85
356.838	12.85
356.968	1.85
357.098	11.85
357.228	4.85
357.358	7.85
357.488	-23.15
357.618	28.85
357.748	8.85
357.878	5.85
358.008	-11.15
358.138	-2.15
358.268	-22.15
358.398	17.85
358.528	2.85
358.658	-3.15
358.788	-5.15
358.918	8.85
359.048	5.85
359.178	8.85
359.308	11.85
359.438	9.85
359.568	25.85
359.698	16.85
359.827	3.85
359.957	9.85
360.087	0.85
360.217	-6.15
360.347	5.85
360.477	15.85
360.607	-6.15
360.737	22.85
360.866	-9.15
360.996	-7.15
361.126	-16.15
361.256	34.85
361.386	26.85
361.516	19.85
361.645	-7.15
361.775	0.85
361.905	-4.15
362.035	20.85
362.165	-16.15
362.294	24.85
362.424	27.85
362.554	12.85
362.684	-9.15
362.813	11.85
362.943	10.85
363.073	4.85
363.203	-15.15
363.332	7.85
363.462	-9.15
363.592	-25.15
363.721	-15.15
363.851	1.85
363.981	6.85
364.111	-1.15
364.24	-8.15
364.37	13.85
364.5	23.85
364.629	22.85
364.759	-24.15
364.888	-3.15
365.018	3.85
365.148	4.85
365.277	0.85
365.407	-0.15
365.537	15.85
365.666	2.85
365.796	0.85
365.925	-2.15
366.055	22.85
366.184	12.85
366.314	-1.15
366.444	13.85
366.573	1.85
366.703	13.85
366.832	10.85
366.962	5.85
367.091	13.85
367.221	1.85
367.35	-3.15
367.48	39.85
367.609	4.85
367.739	11.85
367.868	-10.15
367.998	11.85
368.127	12.85
368.257	8.85
368.386	19.85
368.516	20.85
368.645	0.85
368.775	-2.15
368.904	6.85
369.033	-2.15
369.163	12.85
369.292	24.85
369.422	21.85
369.551	11.85
369.68	24.85
369.81	25.85
369.939	-11.15
370.069	23.85
370.198	12.85
370.327	13.85
370.457	-10.15
370.586	12.85
370.715	-7.15
370.845	8.85
370.974	24.85
371.103	8.85
371.233	17.85
371.362	6.85
371.491	-16.15
371.621	15.85
371.75	6.85
371.879	-2.15
372.008	6.85
372.138	2.85
372.267	17.85
372.396	-1.15
372.525	6.85
372.655	-0.15
372.784	7.85
372.913	1.85
373.042	8.85
373.172	23.85
373.301	-15.15
373.43	-10.15
373.559	2.85
373.688	24.85
373.818	23.85
373.947	7.85
374.076	-8.15
374.205	25.85
374.334	0.85
374.463	5.85
374.593	6.85
374.722	8.85
374.851	20.85
374.98	7.85
375.109	1.85
375.238	9.85
375.367	23.85
375.496	-22.15
375.625	5.85
375.755	12.85
375.884	33.85
376.013	6.85
376.142	-9.15
376.271	-25.15
376.4	-7.15
376.529	-2.15
376.658	-4.15
376.787	-0.15
376.916	-0.15
377.045	1.85
377.174	0.85
377.303	5.85
377.432	27.85
377.561	26.85
377.69	8.85
377.819	18.85
377.948	-2.15
378.077	-2.15
378.206	-11.15
378.335	7.85
378.464	-11.15
378.593	9.85
378.722	-2.15
378.851	2.85
378.98	39.85
379.108	-8.15
379.237	-5.15
379.366	15.85
379.495	7.85
379.624	5.85
379.753	10.85
379.882	22.85
380.011	-0.15
380.14	-14.15
380.268	2.85
380.397	-15.15
380.526	20.85
380.655	-3.15
380.784	-6.15
380.913	3.85
381.041	4.85
381.17	-28.15
381.299	-15.15
381.428	0.85
381.557	11.85
381.685	1.85
381.814	2.85
381.943	12.85
382.072	-6.15
382.2	4.85
382.329	-11.15
382.458	5.85
382.587	17.85
382.715	23.85
382.844	7.85
382.973	10.85
383.102	5.85
383.23	7.85
383.359	-24.15
383.488	4.85
383.616	6.85
383.745	-4.15
383.874	19.85
384.003	1.85
384.131	-1.15
384.26	8.85
384.389	-3.15
384.517	-12.15
384.646	-6.15
384.774	-8.15
384.903	28.85
385.032	27.85
385.16	3.85
385.289	2.85
385.418	6.85
385.546	8.85
385.675	3.85
385.803	-1.15
385.932	8.85
386.06	-1.15
386.189	11.85
386.318	6.85
386.446	2.85
386.575	16.85
386.703	24.85
386.832	-9.15
386.96	-18.15
387.089	10.85
387.217	4.85
387.346	-20.15
387.474	5.85
387.603	15.85
387.731	9.85
387.86	6.85
387.988	5.85
388.117	9.85
388.245	3.85
388.374	8.85
388.502	15.85
388.631	0.85
388.759	-13.15
388.888	-3.15
389.016	1.85
389.144	5.85
389.273	17.85
389.401	-6.15
389.53	-0.15
389.658	9.85
389.786	-24.15
389.915	-22.15
390.043	-15.15
390.172	3.85
390.3	8.85
390.428	12.85
390.557	6.85
390.685	21.85
390.813	23.85
390.942	26.85
391.07	10.85
391.198	2.85
391.327	20.85
391.455	-9.15
391.583	35.85
391.712	13.85
391.84	14.85
391.968	-7.15
392.096	7.85
392.225	6.85
392.353	16.85
392.481	6.85
392.609	10.85
392.738	7.85
392.866	7.85
392.994	1.85
393.122	19.85
393.251	6.85
393.379	2.85
393.507	-3.15
393.635	-0.15
393.764	31.85
393.892	7.85
394.02	-9.15
394.148	-12.15
394.276	2.85
394.404	21.85
394.533	8.85
394.661	11.85
394.789	21.85
394.917	36.85
395.045	-16.15
395.173	-14.15
395.302	-0.15
395.43	14.85
395.558	13.85
395.686	20.85
395.814	27.85
395.942	9.85
396.07	24.85
396.198	2.85
396.326	-2.15
396.454	25.85
396.582	-1.15
396.711	14.85
396.839	23.85
396.967	9.85
397.095	-3.15
397.223	2.85
397.351	29.85
397.479	10.85
397.607	-10.15
397.735	3.85
397.863	14.85
397.991	17.85
398.119	-5.15
398.247	6.85
398.375	-3.15
398.503	13.85
398.631	19.85
398.759	2.85
398.887	15.85
399.015	11.85
399.143	-4.15
399.271	2.85
399.399	25.85
399.526	14.85
399.654	22.85
399.782	-9.15
399.91	21.85
400.038	13.85
400.166	5.85
400.294	4.85
400.422	5.85
400.55	13.85
400.678	4.85
400.805	-10.15
400.933	1.85
401.061	27.85
401.189	7.85
401.317	13.85
401.445	20.85
401.573	23.85
401.7	-5.15
401.828	-20.15
401.956	9.85
402.084	19.85
402.212	21.85
402.34	22.85
402.467	17.85
402.595	9.85
402.723	-8.15
402.851	15.85
402.978	10.85
403.106	17.85
403.234	7.85
403.362	34.85
403.489	28.85
403.617	12.85
403.745	4.85
403.873	6.85
404	7.85
404.128	12.85
404.256	11.85
404.384	21.85
404.511	11.85
404.639	-6.15
404.767	10.85
404.894	17.85
405.022	-1.15
405.15	17.85
405.277	-3.15
405.405	-8.15
405.533	11.85
405.66	3.85
405.788	-5.15
405.916	6.85
406.043	-14.15
406.171	-6.15
406.299	14.85
406.426	22.85
406.554	17.85
406.681	37.85
406.809	21.85
406.937	6.85
407.064	-11.15
407.192	1.85
407.319	8.85
407.447	-0.15
407.574	22.85
407.702	-16.15
407.83	-17.15
407.957	-4.15
408.085	0.85
408.212	30.85
408.34	2.85
408.467	-9.15
408.595	5.85
408.722	6.85
408.85	-0.15
408.977	-9.15
409.105	-2.15
409.232	6.85
409.36	18.85
409.487	3.85
409.615	5.85
409.742	26.85
409.87	20.85
409.997	36.85
410.125	41.85
410.252	61.85
410.379	39.85
410.507	44.85
410.634	2.85
410.762	17.85
410.889	17.85
411.017	22.85
411.144	28.85
411.271	6.85
411.399	20.85
411.526	4.85
411.653	27.85
411.781	28.85
411.908	17.85
412.036	-12.15
412.163	28.85
412.29	14.85
412.418	5.85
412.545	19.85
412.672	-14.15
412.8	28.85
412.927	7.85
413.054	34.85
413.182	10.85
413.309	10.85
413.436	16.85
413.564	20.85
413.691	24.85
413.818	21.85
413.945	-8.15
414.073	0.85
414.2	12.85
414.327	10.85
414.454	22.85
414.582	6.85
414.709	-1.15
414.836	8.85
414.963	4.85
415.091	1.85
415.218	12.85
415.345	9.85
415.472	7.85
415.6	-4.15
415.727	11.85
415.854	6.85
415.981	7.85
416.108	16.85
416.236	16.85
416.363	8.85
416.49	9.85
416.617	16.85
416.744	21.85
416.871	20.85
416.998	-7.15
417.126	0.85
417.253	-12.15
417.38	3.85
417.507	-10.15
417.634	13.85
417.761	12.85
417.888	1.85
418.015	13.85
418.143	5.85
418.27	28.85
418.397	-0.15
418.524	21.85
418.651	-2.15
418.778	-0.15
418.905	39.85
419.032	29.85
419.159	9.85
419.286	36.85
419.413	9.85
419.54	14.85
419.667	1.85
419.794	-19.15
419.921	-7.15
420.048	15.85
420.175	17.85
420.302	0.85
420.429	-0.15
420.556	3.85
420.683	-3.15
420.81	2.85
420.937	13.85
