Data from LowRes_H2_15_26_11_07_2024_HR4C61881__42__15-28-17-837.txt Node

Date: Thu Nov 07 15:28:17 EST 2024
User: crc00042
Spectrometer: HR4C6188
Trigger mode: 4
Integration Time (sec): 1.000000E-1
Scans to average: 1
Electric dark correction enabled: true
Nonlinearity correction enabled: false
Boxcar width: 0
XAxis mode: Wavelengths
Number of Pixels in Spectrum: 3648
>>>>>Begin Spectral Data<<<<<
245.66	-117.46
245.797	-117.46
245.934	-117.46
246.071	-86.46
246.208	8.54
246.344	-3.46
246.481	-14.46
246.618	-6.46
246.755	21.54
246.892	11.54
247.029	-7.46
247.165	-11.46
247.302	22.54
247.439	0.54
247.576	11.54
247.713	-19.46
247.849	7.54
247.986	-12.46
248.123	-8.46
248.26	-5.46
248.396	25.54
248.533	7.54
248.67	8.54
248.806	-8.46
248.943	-13.46
249.08	-1.46
249.216	-3.46
249.353	-28.46
249.49	-8.46
249.626	1.54
249.763	-1.46
249.9	-0.46
250.036	-6.46
250.173	-3.46
250.309	6.54
250.446	5.54
250.582	-1.46
250.719	-5.46
250.856	15.54
250.992	8.54
251.129	-4.46
251.265	-10.46
251.402	-8.46
251.538	-26.46
251.675	-8.46
251.811	7.54
251.948	11.54
252.084	3.54
252.221	-29.46
252.357	-14.46
252.493	25.54
252.63	-3.46
252.766	-2.46
252.903	-8.46
253.039	-10.46
253.175	8.54
253.312	12.54
253.448	-8.46
253.585	-16.46
253.721	-13.46
253.857	-12.46
253.994	-3.46
254.13	21.54
254.266	-5.46
254.403	-3.46
254.539	4.54
254.675	8.54
254.811	7.54
254.948	6.54
255.084	-4.46
255.22	-25.46
255.356	-10.46
255.493	16.54
255.629	-5.46
255.765	18.54
255.901	-13.46
256.037	-5.46
256.174	14.54
256.31	-12.46
256.446	15.54
256.582	-9.46
256.718	-5.46
256.854	12.54
256.991	-5.46
257.127	15.54
257.263	-0.46
257.399	-6.46
257.535	-17.46
257.671	-0.46
257.807	-23.46
257.943	-23.46
258.079	-17.46
258.215	-1.46
258.351	15.54
258.487	-8.46
258.623	12.54
258.759	-9.46
258.895	16.54
259.031	-0.46
259.167	-15.46
259.303	24.54
259.439	-10.46
259.575	-3.46
259.711	-1.46
259.847	-9.46
259.983	7.54
260.119	-0.46
260.255	-6.46
260.391	15.54
260.527	12.54
260.663	0.54
260.799	1.54
260.934	-1.46
261.07	5.54
261.206	-14.46
261.342	-17.46
261.478	20.54
261.614	15.54
261.749	18.54
261.885	-4.46
262.021	-4.46
262.157	19.54
262.293	5.54
262.428	2.54
262.564	1.54
262.7	0.54
262.836	-12.46
262.971	17.54
263.107	4.54
263.243	11.54
263.378	-0.46
263.514	-15.46
263.65	-9.46
263.785	-9.46
263.921	-21.46
264.057	1.54
264.192	11.54
264.328	12.54
264.464	-1.46
264.599	-0.46
264.735	10.54
264.871	-0.46
265.006	6.54
265.142	-19.46
265.277	2.54
265.413	2.54
265.548	10.54
265.684	15.54
265.819	-18.46
265.955	-2.46
266.091	-16.46
266.226	-26.46
266.362	4.54
266.497	3.54
266.633	-5.46
266.768	0.54
266.903	18.54
267.039	5.54
267.174	8.54
267.31	4.54
267.445	5.54
267.581	3.54
267.716	14.54
267.851	2.54
267.987	-18.46
268.122	23.54
268.258	-2.46
268.393	7.54
268.528	12.54
268.664	3.54
268.799	-13.46
268.934	-11.46
269.07	-9.46
269.205	-1.46
269.34	20.54
269.476	5.54
269.611	-23.46
269.746	17.54
269.881	-4.46
270.017	17.54
270.152	-2.46
270.287	-5.46
270.422	-5.46
270.558	-7.46
270.693	10.54
270.828	0.54
270.963	-13.46
271.098	-17.46
271.234	6.54
271.369	27.54
271.504	-5.46
271.639	7.54
271.774	3.54
271.909	2.54
272.045	-16.46
272.18	-4.46
272.315	-4.46
272.45	6.54
272.585	-16.46
272.72	9.54
272.855	17.54
272.99	11.54
273.125	-3.46
273.26	-10.46
273.395	3.54
273.53	2.54
273.665	15.54
273.8	1.54
273.935	-0.46
274.07	-21.46
274.205	6.54
274.34	-1.46
274.475	2.54
274.61	19.54
274.745	-12.46
274.88	13.54
275.015	-9.46
275.15	11.54
275.285	3.54
275.42	13.54
275.555	2.54
275.69	-1.46
275.825	-8.46
275.959	-1.46
276.094	3.54
276.229	-6.46
276.364	-13.46
276.499	7.54
276.634	-4.46
276.768	3.54
276.903	13.54
277.038	24.54
277.173	3.54
277.308	-2.46
277.442	-11.46
277.577	0.54
277.712	-14.46
277.847	8.54
277.981	12.54
278.116	-29.46
278.251	-9.46
278.386	15.54
278.52	8.54
278.655	-1.46
278.79	9.54
278.924	-11.46
279.059	10.54
279.194	-9.46
279.328	22.54
279.463	5.54
279.598	40.54
279.732	27.54
279.867	20.54
280.001	1.54
280.136	4.54
280.271	10.54
280.405	2.54
280.54	0.54
280.674	-17.46
280.809	16.54
280.943	-4.46
281.078	3.54
281.213	25.54
281.347	20.54
281.482	10.54
281.616	8.54
281.751	-1.46
281.885	-19.46
282.02	-12.46
282.154	-2.46
282.288	1.54
282.423	-13.46
282.557	-30.46
282.692	9.54
282.826	6.54
282.961	8.54
283.095	-14.46
283.229	-11.46
283.364	-27.46
283.498	-8.46
283.633	-5.46
283.767	-2.46
283.901	10.54
284.036	1.54
284.17	-13.46
284.304	-3.46
284.439	8.54
284.573	-0.46
284.707	21.54
284.842	-15.46
284.976	-16.46
285.11	-14.46
285.244	-8.46
285.379	40.54
285.513	-12.46
285.647	-5.46
285.781	-0.46
285.916	2.54
286.05	-9.46
286.184	14.54
286.318	17.54
286.453	-11.46
286.587	-18.46
286.721	-10.46
286.855	2.54
286.989	-6.46
287.123	-2.46
287.258	-7.46
287.392	-3.46
287.526	24.54
287.66	-2.46
287.794	-7.46
287.928	-16.46
288.062	0.54
288.196	8.54
288.33	14.54
288.464	14.54
288.598	1.54
288.733	1.54
288.867	27.54
289.001	-1.46
289.135	-11.46
289.269	-10.46
289.403	-3.46
289.537	-0.46
289.671	12.54
289.805	2.54
289.939	6.54
290.073	-22.46
290.207	9.54
290.34	-0.46
290.474	2.54
290.608	-12.46
290.742	0.54
290.876	-10.46
291.01	-13.46
291.144	15.54
291.278	22.54
291.412	1.54
291.546	-11.46
291.679	-2.46
291.813	-0.46
291.947	-1.46
292.081	-1.46
292.215	-1.46
292.349	9.54
292.482	16.54
292.616	1.54
292.75	-0.46
292.884	14.54
293.018	7.54
293.151	-6.46
293.285	1.54
293.419	-2.46
293.553	4.54
293.686	-9.46
293.82	14.54
293.954	15.54
294.088	23.54
294.221	18.54
294.355	-11.46
294.489	8.54
294.622	-7.46
294.756	9.54
294.89	5.54
295.023	9.54
295.157	8.54
295.291	-1.46
295.424	4.54
295.558	7.54
295.691	20.54
295.825	9.54
295.959	18.54
296.092	-0.46
296.226	0.54
296.359	1.54
296.493	8.54
296.627	-3.46
296.76	-2.46
296.894	-12.46
297.027	-4.46
297.161	20.54
297.294	3.54
297.428	1.54
297.561	-0.46
297.695	-19.46
297.828	-4.46
297.962	-4.46
298.095	14.54
298.229	8.54
298.362	-12.46
298.495	2.54
298.629	-7.46
298.762	-4.46
298.896	3.54
299.029	-21.46
299.162	6.54
299.296	8.54
299.429	-6.46
299.563	7.54
299.696	16.54
299.829	8.54
299.963	16.54
300.096	29.54
300.229	-1.46
300.363	-0.46
300.496	18.54
300.629	-13.46
300.763	-4.46
300.896	-5.46
301.029	1.54
301.162	-2.46
301.296	-14.46
301.429	-0.46
301.562	-26.46
301.695	14.54
301.829	16.54
301.962	29.54
302.095	11.54
302.228	-12.46
302.362	-3.46
302.495	-12.46
302.628	-7.46
302.761	3.54
302.894	-0.46
303.027	5.54
303.161	-12.46
303.294	-5.46
303.427	6.54
303.56	0.54
303.693	-1.46
303.826	2.54
303.959	-0.46
304.092	7.54
304.225	-2.46
304.359	11.54
304.492	9.54
304.625	1.54
304.758	-9.46
304.891	-14.46
305.024	-5.46
305.157	-10.46
305.29	-23.46
305.423	-10.46
305.556	18.54
305.689	17.54
305.822	-4.46
305.955	3.54
306.088	6.54
306.221	6.54
306.354	-0.46
306.487	-10.46
306.62	-26.46
306.752	-13.46
306.885	2.54
307.018	4.54
307.151	9.54
307.284	12.54
307.417	-5.46
307.55	8.54
307.683	-3.46
307.816	13.54
307.948	8.54
308.081	22.54
308.214	-8.46
308.347	7.54
308.48	-8.46
308.613	-14.46
308.745	12.54
308.878	-16.46
309.011	-16.46
309.144	1.54
309.277	4.54
309.409	-4.46
309.542	-9.46
309.675	26.54
309.808	-3.46
309.94	26.54
310.073	-6.46
310.206	3.54
310.339	22.54
310.471	-11.46
310.604	9.54
310.737	-13.46
310.869	1.54
311.002	0.54
311.135	-7.46
311.267	-14.46
311.4	-4.46
311.533	24.54
311.665	0.54
311.798	5.54
311.93	1.54
312.063	4.54
312.196	1.54
312.328	8.54
312.461	-11.46
312.593	-10.46
312.726	-1.46
312.859	-17.46
312.991	15.54
313.124	-27.46
313.256	-0.46
313.389	12.54
313.521	-10.46
313.654	7.54
313.786	-15.46
313.919	-13.46
314.051	-5.46
314.184	3.54
314.316	9.54
314.449	-1.46
314.581	0.54
314.714	3.54
314.846	15.54
314.978	-7.46
315.111	-12.46
315.243	10.54
315.376	8.54
315.508	24.54
315.641	7.54
315.773	33.54
315.905	-0.46
316.038	8.54
316.17	-0.46
316.302	4.54
316.435	-1.46
316.567	8.54
316.699	30.54
316.832	-13.46
316.964	3.54
317.096	-6.46
317.229	-6.46
317.361	-25.46
317.493	-8.46
317.625	-9.46
317.758	-7.46
317.89	13.54
318.022	-0.46
318.155	-13.46
318.287	-5.46
318.419	-10.46
318.551	15.54
318.683	2.54
318.816	-8.46
318.948	-20.46
319.08	-13.46
319.212	3.54
319.344	0.54
319.477	-17.46
319.609	-7.46
319.741	44.54
319.873	-0.46
320.005	11.54
320.137	-21.46
320.269	-5.46
320.401	0.54
320.534	-5.46
320.666	-8.46
320.798	-24.46
320.93	1.54
321.062	-9.46
321.194	-2.46
321.326	-17.46
321.458	-0.46
321.59	0.54
321.722	2.54
321.854	7.54
321.986	-0.46
322.118	0.54
322.25	-18.46
322.382	-3.46
322.514	3.54
322.646	-15.46
322.778	32.54
322.91	0.54
323.042	7.54
323.174	20.54
323.306	-4.46
323.438	-19.46
323.57	14.54
323.702	12.54
323.834	-3.46
323.966	-4.46
324.097	3.54
324.229	24.54
324.361	18.54
324.493	-10.46
324.625	3.54
324.757	15.54
324.889	-5.46
325.021	6.54
325.152	19.54
325.284	17.54
325.416	-4.46
325.548	8.54
325.68	-8.46
325.811	0.54
325.943	7.54
326.075	-15.46
326.207	-0.46
326.339	17.54
326.47	2.54
326.602	9.54
326.734	13.54
326.866	13.54
326.997	-15.46
327.129	-8.46
327.261	16.54
327.392	-3.46
327.524	8.54
327.656	3.54
327.787	8.54
327.919	17.54
328.051	20.54
328.182	6.54
328.314	2.54
328.446	6.54
328.577	10.54
328.709	9.54
328.841	-5.46
328.972	11.54
329.104	-6.46
329.235	-3.46
329.367	-1.46
329.499	-5.46
329.63	1.54
329.762	-7.46
329.893	19.54
330.025	22.54
330.156	2.54
330.288	10.54
330.419	16.54
330.551	11.54
330.683	2.54
330.814	1.54
330.946	18.54
331.077	7.54
331.208	5.54
331.34	-7.46
331.471	-19.46
331.603	-7.46
331.734	-4.46
331.866	11.54
331.997	3.54
332.129	0.54
332.26	2.54
332.392	21.54
332.523	-3.46
332.654	-2.46
332.786	-1.46
332.917	-9.46
333.048	4.54
333.18	28.54
333.311	-3.46
333.443	-3.46
333.574	-4.46
333.705	5.54
333.837	2.54
333.968	-3.46
334.099	11.54
334.231	27.54
334.362	6.54
334.493	14.54
334.624	13.54
334.756	7.54
334.887	-0.46
335.018	8.54
335.15	-4.46
335.281	-9.46
335.412	8.54
335.543	4.54
335.675	25.54
335.806	19.54
335.937	3.54
336.068	17.54
336.199	24.54
336.331	-0.46
336.462	-11.46
336.593	27.54
336.724	-22.46
336.855	-7.46
336.986	17.54
337.118	7.54
337.249	10.54
337.38	12.54
337.511	0.54
337.642	9.54
337.773	15.54
337.904	13.54
338.035	23.54
338.166	11.54
338.298	-8.46
338.429	-10.46
338.56	-3.46
338.691	24.54
338.822	19.54
338.953	12.54
339.084	22.54
339.215	6.54
339.346	-8.46
339.477	-5.46
339.608	10.54
339.739	-8.46
339.87	-1.46
340.001	-1.46
340.132	3.54
340.263	13.54
340.394	3.54
340.525	4.54
340.656	-6.46
340.787	3.54
340.918	32.54
341.049	4.54
341.179	23.54
341.31	0.54
341.441	-0.46
341.572	28.54
341.703	16.54
341.834	-9.46
341.965	18.54
342.096	-3.46
342.227	17.54
342.357	6.54
342.488	8.54
342.619	2.54
342.75	3.54
342.881	-13.46
343.012	14.54
343.142	9.54
343.273	-11.46
343.404	6.54
343.535	25.54
343.666	9.54
343.796	18.54
343.927	-2.46
344.058	18.54
344.189	-3.46
344.319	5.54
344.45	22.54
344.581	-0.46
344.712	-0.46
344.842	-1.46
344.973	10.54
345.104	11.54
345.234	-9.46
345.365	-23.46
345.496	4.54
345.626	3.54
345.757	23.54
345.888	-11.46
346.018	24.54
346.149	-7.46
346.28	26.54
346.41	-16.46
346.541	19.54
346.672	-10.46
346.802	24.54
346.933	0.54
347.063	-1.46
347.194	-3.46
347.325	8.54
347.455	9.54
347.586	6.54
347.716	-17.46
347.847	-0.46
347.977	25.54
348.108	6.54
348.238	-0.46
348.369	-7.46
348.499	10.54
348.63	1.54
348.76	-3.46
348.891	-11.46
349.021	-1.46
349.152	9.54
349.282	-15.46
349.413	18.54
349.543	20.54
349.674	8.54
349.804	2.54
349.935	-12.46
350.065	-5.46
350.196	-12.46
350.326	0.54
350.456	-14.46
350.587	18.54
350.717	-5.46
350.848	3.54
350.978	15.54
351.108	-12.46
351.239	11.54
351.369	1.54
351.499	-11.46
351.63	16.54
351.76	3.54
351.89	5.54
352.021	15.54
352.151	-0.46
352.281	10.54
352.412	-2.46
352.542	2.54
352.672	-7.46
352.803	-7.46
352.933	4.54
353.063	-4.46
353.193	3.54
353.324	11.54
353.454	11.54
353.584	17.54
353.714	0.54
353.845	1.54
353.975	-3.46
354.105	2.54
354.235	1.54
354.365	5.54
354.496	-8.46
354.626	4.54
354.756	21.54
354.886	-9.46
355.016	-6.46
355.146	4.54
355.277	11.54
355.407	-6.46
355.537	16.54
355.667	10.54
355.797	-3.46
355.927	-19.46
356.057	11.54
356.187	15.54
356.318	-8.46
356.448	18.54
356.578	10.54
356.708	1.54
356.838	0.54
356.968	-7.46
357.098	8.54
357.228	13.54
357.358	2.54
357.488	-5.46
357.618	23.54
357.748	10.54
357.878	-13.46
358.008	-6.46
358.138	-8.46
358.268	0.54
358.398	25.54
358.528	-6.46
358.658	13.54
358.788	-7.46
358.918	5.54
359.048	13.54
359.178	14.54
359.308	18.54
359.438	24.54
359.568	13.54
359.698	8.54
359.827	-6.46
359.957	-7.46
360.087	14.54
360.217	-23.46
360.347	-1.46
360.477	1.54
360.607	-10.46
360.737	12.54
360.866	4.54
360.996	-10.46
361.126	-5.46
361.256	18.54
361.386	26.54
361.516	17.54
361.645	-4.46
361.775	8.54
361.905	-12.46
362.035	-0.46
362.165	0.54
362.294	-0.46
362.424	15.54
362.554	8.54
362.684	-14.46
362.813	0.54
362.943	8.54
363.073	18.54
363.203	13.54
363.332	8.54
363.462	3.54
363.592	5.54
363.721	7.54
363.851	-8.46
363.981	14.54
364.111	-5.46
364.24	-13.46
364.37	15.54
364.5	26.54
364.629	-3.46
364.759	10.54
364.888	-20.46
365.018	-7.46
365.148	4.54
365.277	2.54
365.407	8.54
365.537	6.54
365.666	9.54
365.796	-7.46
365.925	10.54
366.055	20.54
366.184	5.54
366.314	11.54
366.444	9.54
366.573	-1.46
366.703	0.54
366.832	9.54
366.962	6.54
367.091	23.54
367.221	3.54
367.35	-3.46
367.48	19.54
367.609	10.54
367.739	10.54
367.868	-1.46
367.998	6.54
368.127	-0.46
368.257	10.54
368.386	28.54
368.516	4.54
368.645	19.54
368.775	8.54
368.904	12.54
369.033	-8.46
369.163	1.54
369.292	12.54
369.422	20.54
369.551	1.54
369.68	0.54
369.81	9.54
369.939	8.54
370.069	19.54
370.198	1.54
370.327	3.54
370.457	18.54
370.586	15.54
370.715	-0.46
370.845	-0.46
370.974	10.54
371.103	16.54
371.233	11.54
371.362	-7.46
371.491	-17.46
371.621	4.54
371.75	-0.46
371.879	-13.46
372.008	-4.46
372.138	-1.46
372.267	18.54
372.396	1.54
372.525	-7.46
372.655	-14.46
372.784	-7.46
372.913	12.54
373.042	4.54
373.172	26.54
373.301	-8.46
373.43	-6.46
373.559	12.54
373.688	28.54
373.818	32.54
373.947	9.54
374.076	-1.46
374.205	6.54
374.334	-1.46
374.463	-20.46
374.593	4.54
374.722	8.54
374.851	18.54
374.98	7.54
375.109	-0.46
375.238	20.54
375.367	31.54
375.496	-5.46
375.625	6.54
375.755	8.54
375.884	8.54
376.013	10.54
376.142	-9.46
376.271	7.54
376.4	14.54
376.529	2.54
376.658	0.54
376.787	17.54
376.916	7.54
377.045	3.54
377.174	-1.46
377.303	11.54
377.432	41.54
377.561	10.54
377.69	1.54
377.819	13.54
377.948	7.54
378.077	-6.46
378.206	-13.46
378.335	-3.46
378.464	-2.46
378.593	8.54
378.722	-3.46
378.851	-7.46
378.98	12.54
379.108	-15.46
379.237	-10.46
379.366	3.54
379.495	7.54
379.624	9.54
379.753	13.54
379.882	-5.46
380.011	6.54
380.14	2.54
380.268	13.54
380.397	4.54
380.526	40.54
380.655	5.54
380.784	-20.46
380.913	-1.46
381.041	-5.46
381.17	-26.46
381.299	-5.46
381.428	7.54
381.557	-3.46
381.685	0.54
381.814	23.54
381.943	3.54
382.072	3.54
382.2	-6.46
382.329	-6.46
382.458	8.54
382.587	19.54
382.715	18.54
382.844	28.54
382.973	29.54
383.102	-12.46
383.23	4.54
383.359	-8.46
383.488	-8.46
383.616	-10.46
383.745	-19.46
383.874	1.54
384.003	-4.46
384.131	-1.46
384.26	-12.46
384.389	0.54
384.517	-7.46
384.646	-4.46
384.774	7.54
384.903	25.54
385.032	16.54
385.16	-1.46
385.289	-9.46
385.418	-8.46
385.546	-4.46
385.675	10.54
385.803	-10.46
385.932	4.54
386.06	-16.46
386.189	3.54
386.318	-5.46
386.446	-3.46
386.575	16.54
386.703	19.54
386.832	-20.46
386.96	-0.46
387.089	16.54
387.217	23.54
387.346	1.54
387.474	6.54
387.603	-0.46
387.731	3.54
387.86	17.54
387.988	22.54
388.117	42.54
388.245	11.54
388.374	-17.46
388.502	9.54
388.631	6.54
388.759	-8.46
388.888	12.54
389.016	-7.46
389.144	8.54
389.273	21.54
389.401	4.54
389.53	-5.46
389.658	11.54
389.786	6.54
389.915	-7.46
390.043	-22.46
390.172	-5.46
390.3	21.54
390.428	19.54
390.557	-10.46
390.685	18.54
390.813	31.54
390.942	25.54
391.07	-1.46
391.198	-3.46
391.327	0.54
391.455	-9.46
391.583	24.54
391.712	0.54
391.84	22.54
391.968	16.54
392.096	-0.46
392.225	-13.46
392.353	9.54
392.481	-8.46
392.609	-1.46
392.738	-0.46
392.866	20.54
392.994	0.54
393.122	19.54
393.251	-3.46
393.379	-9.46
393.507	-23.46
393.635	-8.46
393.764	12.54
393.892	21.54
394.02	-3.46
394.148	-11.46
394.276	-4.46
394.404	26.54
394.533	7.54
394.661	3.54
394.789	-1.46
394.917	11.54
395.045	3.54
395.173	0.54
395.302	-3.46
395.43	-5.46
395.558	14.54
395.686	19.54
395.814	6.54
395.942	-8.46
396.07	-0.46
396.198	11.54
396.326	18.54
396.454	22.54
396.582	18.54
396.711	10.54
396.839	9.54
396.967	5.54
397.095	8.54
397.223	13.54
397.351	23.54
397.479	14.54
397.607	-11.46
397.735	14.54
397.863	1.54
397.991	8.54
398.119	-4.46
398.247	0.54
398.375	-4.46
398.503	14.54
398.631	8.54
398.759	-10.46
398.887	6.54
399.015	5.54
399.143	-3.46
399.271	-2.46
399.399	12.54
399.526	10.54
399.654	11.54
399.782	-2.46
399.91	15.54
400.038	42.54
400.166	2.54
400.294	-1.46
400.422	-13.46
400.55	9.54
400.678	10.54
400.805	6.54
400.933	2.54
401.061	2.54
401.189	-3.46
401.317	20.54
401.445	12.54
401.573	21.54
401.7	-7.46
401.828	-9.46
401.956	-3.46
402.084	15.54
402.212	14.54
402.34	18.54
402.467	13.54
402.595	3.54
402.723	-13.46
402.851	23.54
402.978	5.54
403.106	15.54
403.234	5.54
403.362	26.54
403.489	19.54
403.617	12.54
403.745	-2.46
403.873	-4.46
404	28.54
404.128	4.54
404.256	7.54
404.384	29.54
404.511	27.54
404.639	18.54
404.767	-16.46
404.894	-1.46
405.022	11.54
405.15	31.54
405.277	-2.46
405.405	3.54
405.533	4.54
405.66	-8.46
405.788	-3.46
405.916	-17.46
406.043	-7.46
406.171	8.54
406.299	21.54
406.426	26.54
406.554	10.54
406.681	15.54
406.809	16.54
406.937	8.54
407.064	6.54
407.192	0.54
407.319	-0.46
407.447	8.54
407.574	41.54
407.702	19.54
407.83	-8.46
407.957	-14.46
408.085	10.54
408.212	0.54
408.34	8.54
408.467	-7.46
408.595	10.54
408.722	10.54
408.85	3.54
408.977	11.54
409.105	12.54
409.232	5.54
409.36	-10.46
409.487	6.54
409.615	-0.46
409.742	31.54
409.87	36.54
409.997	29.54
410.125	23.54
410.252	56.54
410.379	47.54
410.507	34.54
410.634	24.54
410.762	6.54
410.889	20.54
411.017	5.54
411.144	15.54
411.271	7.54
411.399	29.54
411.526	12.54
411.653	23.54
411.781	19.54
411.908	23.54
412.036	15.54
412.163	34.54
412.29	34.54
412.418	28.54
412.545	24.54
412.672	-2.46
412.8	30.54
412.927	16.54
413.054	26.54
413.182	-10.46
413.309	7.54
413.436	-8.46
413.564	-7.46
413.691	-5.46
413.818	19.54
413.945	-20.46
414.073	-6.46
414.2	13.54
414.327	2.54
414.454	10.54
414.582	6.54
414.709	-11.46
414.836	11.54
414.963	15.54
415.091	12.54
415.218	4.54
415.345	-4.46
415.472	-0.46
415.6	0.54
415.727	11.54
415.854	5.54
415.981	8.54
416.108	9.54
416.236	10.54
416.363	20.54
416.49	-0.46
416.617	1.54
416.744	31.54
416.871	15.54
416.998	17.54
417.126	20.54
417.253	19.54
417.38	-6.46
417.507	-5.46
417.634	11.54
417.761	23.54
417.888	16.54
418.015	18.54
418.143	3.54
418.27	10.54
418.397	10.54
418.524	16.54
418.651	-6.46
418.778	6.54
418.905	12.54
419.032	16.54
419.159	16.54
419.286	37.54
419.413	35.54
419.54	23.54
419.667	-2.46
419.794	-5.46
419.921	4.54
420.048	21.54
420.175	16.54
