Data from LowRes_H2_15_26_11_07_2024_HR4C61881__67__15-28-20-336.txt Node

Date: Thu Nov 07 15:28:20 EST 2024
User: crc00042
Spectrometer: HR4C6188
Trigger mode: 4
Integration Time (sec): 1.000000E-1
Scans to average: 1
Electric dark correction enabled: true
Nonlinearity correction enabled: false
Boxcar width: 0
XAxis mode: Wavelengths
Number of Pixels in Spectrum: 3648
>>>>>Begin Spectral Data<<<<<
245.66	-108.31
245.797	-108.31
245.934	-108.31
246.071	-90.31
246.208	20.69
246.344	20.69
246.481	-1.31
246.618	-9.31
246.755	23.69
246.892	-8.31
247.029	-8.31
247.165	0.69
247.302	15.69
247.439	-6.31
247.576	2.69
247.713	-9.31
247.849	-1.31
247.986	-19.31
248.123	1.69
248.26	-17.31
248.396	18.69
248.533	0.69
248.67	-25.31
248.806	18.69
248.943	-11.31
249.08	4.69
249.216	20.69
249.353	-21.31
249.49	-17.31
249.626	-3.31
249.763	-8.31
249.9	-16.31
250.036	17.69
250.173	9.69
250.309	12.69
250.446	18.69
250.582	7.69
250.719	16.69
250.856	17.69
250.992	-6.31
251.129	5.69
251.265	-31.31
251.402	-7.31
251.538	-7.31
251.675	-0.31
251.811	14.69
251.948	5.69
252.084	0.69
252.221	6.69
252.357	-3.31
252.493	34.69
252.63	-1.31
252.766	21.69
252.903	-4.31
253.039	6.69
253.175	3.69
253.312	-3.31
253.448	-25.31
253.585	-6.31
253.721	-14.31
253.857	-0.31
253.994	-4.31
254.13	1.69
254.266	1.69
254.403	-7.31
254.539	-4.31
254.675	-11.31
254.811	3.69
254.948	0.69
255.084	-6.31
255.22	-4.31
255.356	8.69
255.493	22.69
255.629	-4.31
255.765	0.69
255.901	8.69
256.037	18.69
256.174	8.69
256.31	-13.31
256.446	-5.31
256.582	-7.31
256.718	14.69
256.854	25.69
256.991	5.69
257.127	16.69
257.263	7.69
257.399	3.69
257.535	-13.31
257.671	-20.31
257.807	-18.31
257.943	-7.31
258.079	-9.31
258.215	-6.31
258.351	4.69
258.487	7.69
258.623	13.69
258.759	-1.31
258.895	-12.31
259.031	10.69
259.167	2.69
259.303	20.69
259.439	-6.31
259.575	-17.31
259.711	-0.31
259.847	-15.31
259.983	8.69
260.119	-22.31
260.255	9.69
260.391	18.69
260.527	3.69
260.663	7.69
260.799	5.69
260.934	-1.31
261.07	2.69
261.206	-3.31
261.342	-13.31
261.478	7.69
261.614	17.69
261.749	-0.31
261.885	-3.31
262.021	7.69
262.157	8.69
262.293	3.69
262.428	-3.31
262.564	5.69
262.7	12.69
262.836	-0.31
262.971	18.69
263.107	-3.31
263.243	5.69
263.378	2.69
263.514	-20.31
263.65	5.69
263.785	-3.31
263.921	-3.31
264.057	12.69
264.192	-4.31
264.328	16.69
264.464	-29.31
264.599	18.69
264.735	26.69
264.871	-0.31
265.006	23.69
265.142	-5.31
265.277	19.69
265.413	24.69
265.548	2.69
265.684	13.69
265.819	7.69
265.955	-19.31
266.091	-16.31
266.226	-13.31
266.362	5.69
266.497	6.69
266.633	4.69
266.768	3.69
266.903	6.69
267.039	33.69
267.174	31.69
267.31	-1.31
267.445	-1.31
267.581	4.69
267.716	10.69
267.851	6.69
267.987	17.69
268.122	14.69
268.258	-4.31
268.393	-6.31
268.528	9.69
268.664	-16.31
268.799	7.69
268.934	-0.31
269.07	-1.31
269.205	-8.31
269.34	17.69
269.476	4.69
269.611	-15.31
269.746	10.69
269.881	7.69
270.017	20.69
270.152	6.69
270.287	-2.31
270.422	-1.31
270.558	-20.31
270.693	13.69
270.828	-10.31
270.963	0.69
271.098	-4.31
271.234	-4.31
271.369	8.69
271.504	-14.31
271.639	-12.31
271.774	3.69
271.909	12.69
272.045	-6.31
272.18	-2.31
272.315	4.69
272.45	11.69
272.585	-16.31
272.72	-5.31
272.855	5.69
272.99	-2.31
273.125	-22.31
273.26	-23.31
273.395	3.69
273.53	-17.31
273.665	11.69
273.8	10.69
273.935	14.69
274.07	7.69
274.205	20.69
274.34	4.69
274.475	-8.31
274.61	16.69
274.745	5.69
274.88	21.69
275.015	-9.31
275.15	10.69
275.285	10.69
275.42	-1.31
275.555	16.69
275.69	1.69
275.825	5.69
275.959	16.69
276.094	3.69
276.229	-3.31
276.364	-7.31
276.499	4.69
276.634	6.69
276.768	0.69
276.903	0.69
277.038	4.69
277.173	-8.31
277.308	0.69
277.442	-17.31
277.577	-6.31
277.712	-20.31
277.847	-0.31
277.981	16.69
278.116	-24.31
278.251	14.69
278.386	9.69
278.52	-3.31
278.655	9.69
278.79	5.69
278.924	-1.31
279.059	26.69
279.194	-10.31
279.328	34.69
279.463	5.69
279.598	11.69
279.732	3.69
279.867	2.69
280.001	1.69
280.136	5.69
280.271	-4.31
280.405	9.69
280.54	13.69
280.674	-16.31
280.809	15.69
280.943	0.69
281.078	-7.31
281.213	15.69
281.347	7.69
281.482	16.69
281.616	16.69
281.751	-3.31
281.885	-16.31
282.02	-14.31
282.154	-1.31
282.288	2.69
282.423	-7.31
282.557	-21.31
282.692	1.69
282.826	7.69
282.961	23.69
283.095	26.69
283.229	-4.31
283.364	-14.31
283.498	1.69
283.633	-0.31
283.767	20.69
283.901	7.69
284.036	21.69
284.17	8.69
284.304	-3.31
284.439	9.69
284.573	-5.31
284.707	0.69
284.842	1.69
284.976	-13.31
285.11	-26.31
285.244	0.69
285.379	30.69
285.513	-11.31
285.647	6.69
285.781	1.69
285.916	27.69
286.05	2.69
286.184	38.69
286.318	14.69
286.453	-11.31
286.587	-3.31
286.721	-8.31
286.855	3.69
286.989	1.69
287.123	8.69
287.258	5.69
287.392	17.69
287.526	18.69
287.66	11.69
287.794	2.69
287.928	-26.31
288.062	8.69
288.196	-3.31
288.33	-11.31
288.464	5.69
288.598	10.69
288.733	-8.31
288.867	6.69
289.001	-4.31
289.135	11.69
289.269	-11.31
289.403	-8.31
289.537	4.69
289.671	10.69
289.805	-12.31
289.939	7.69
290.073	0.69
290.207	9.69
290.34	0.69
290.474	9.69
290.608	15.69
290.742	1.69
290.876	-17.31
291.01	-4.31
291.144	47.69
291.278	11.69
291.412	10.69
291.546	-4.31
291.679	-5.31
291.813	-11.31
291.947	-4.31
292.081	5.69
292.215	17.69
292.349	18.69
292.482	-7.31
292.616	7.69
292.75	6.69
292.884	4.69
293.018	5.69
293.151	-33.31
293.285	-4.31
293.419	-25.31
293.553	-9.31
293.686	-12.31
293.82	2.69
293.954	17.69
294.088	32.69
294.221	2.69
294.355	-2.31
294.489	18.69
294.622	14.69
294.756	2.69
294.89	1.69
295.023	-6.31
295.157	3.69
295.291	0.69
295.424	15.69
295.558	2.69
295.691	-7.31
295.825	-7.31
295.959	1.69
296.092	3.69
296.226	12.69
296.359	3.69
296.493	4.69
296.627	10.69
296.76	10.69
296.894	-9.31
297.027	-5.31
297.161	-2.31
297.294	-4.31
297.428	-6.31
297.561	20.69
297.695	21.69
297.828	4.69
297.962	-5.31
298.095	16.69
298.229	3.69
298.362	-15.31
298.495	-5.31
298.629	-8.31
298.762	-0.31
298.896	-5.31
299.029	-5.31
299.162	-14.31
299.296	9.69
299.429	-6.31
299.563	-7.31
299.696	1.69
299.829	17.69
299.963	20.69
300.096	22.69
300.229	-3.31
300.363	3.69
300.496	-3.31
300.629	-34.31
300.763	-10.31
300.896	-14.31
301.029	3.69
301.162	-1.31
301.296	-15.31
301.429	2.69
301.562	-13.31
301.695	-11.31
301.829	3.69
301.962	18.69
302.095	-0.31
302.228	-9.31
302.362	-1.31
302.495	-11.31
302.628	-0.31
302.761	-10.31
302.894	-8.31
303.027	1.69
303.161	-5.31
303.294	-8.31
303.427	7.69
303.56	7.69
303.693	7.69
303.826	7.69
303.959	2.69
304.092	8.69
304.225	-11.31
304.359	3.69
304.492	6.69
304.625	-3.31
304.758	3.69
304.891	-14.31
305.024	-4.31
305.157	-0.31
305.29	-12.31
305.423	9.69
305.556	20.69
305.689	3.69
305.822	-17.31
305.955	-1.31
306.088	-13.31
306.221	-8.31
306.354	-11.31
306.487	-17.31
306.62	-2.31
306.752	18.69
306.885	-9.31
307.018	-2.31
307.151	2.69
307.284	4.69
307.417	-12.31
307.55	5.69
307.683	5.69
307.816	14.69
307.948	8.69
308.081	11.69
308.214	10.69
308.347	24.69
308.48	-2.31
308.613	-4.31
308.745	-1.31
308.878	-19.31
309.011	-6.31
309.144	7.69
309.277	-6.31
309.409	-0.31
309.542	-2.31
309.675	13.69
309.808	-0.31
309.94	9.69
310.073	-7.31
310.206	-2.31
310.339	8.69
310.471	-8.31
310.604	20.69
310.737	-6.31
310.869	-4.31
311.002	-15.31
311.135	-11.31
311.267	-17.31
311.4	-1.31
311.533	24.69
311.665	-4.31
311.798	-10.31
311.93	7.69
312.063	28.69
312.196	9.69
312.328	-13.31
312.461	-0.31
312.593	10.69
312.726	2.69
312.859	12.69
312.991	10.69
313.124	-18.31
313.256	2.69
313.389	-1.31
313.521	-8.31
313.654	-6.31
313.786	-13.31
313.919	-8.31
314.051	-1.31
314.184	10.69
314.316	1.69
314.449	-5.31
314.581	-7.31
314.714	-4.31
314.846	-10.31
314.978	-16.31
315.111	-13.31
315.243	-14.31
315.376	7.69
315.508	16.69
315.641	-5.31
315.773	23.69
315.905	18.69
316.038	2.69
316.17	-3.31
316.302	-0.31
316.435	8.69
316.567	0.69
316.699	37.69
316.832	0.69
316.964	5.69
317.096	-1.31
317.229	1.69
317.361	-6.31
317.493	8.69
317.625	-19.31
317.758	2.69
317.89	4.69
318.022	-5.31
318.155	-7.31
318.287	-22.31
318.419	-4.31
318.551	9.69
318.683	3.69
318.816	-0.31
318.948	-8.31
319.08	-8.31
319.212	-6.31
319.344	8.69
319.477	-0.31
319.609	13.69
319.741	23.69
319.873	-6.31
320.005	-13.31
320.137	5.69
320.269	7.69
320.401	6.69
320.534	-0.31
320.666	-19.31
320.798	-1.31
320.93	3.69
321.062	3.69
321.194	-1.31
321.326	6.69
321.458	1.69
321.59	-11.31
321.722	-3.31
321.854	4.69
321.986	5.69
322.118	20.69
322.25	-19.31
322.382	3.69
322.514	-16.31
322.646	-20.31
322.778	9.69
322.91	-13.31
323.042	12.69
323.174	-2.31
323.306	-16.31
323.438	-18.31
323.57	4.69
323.702	-0.31
323.834	-8.31
323.966	-12.31
324.097	-1.31
324.229	19.69
324.361	-8.31
324.493	-9.31
324.625	6.69
324.757	3.69
324.889	-1.31
325.021	-0.31
325.152	7.69
325.284	24.69
325.416	3.69
325.548	21.69
325.68	-17.31
325.811	9.69
325.943	-4.31
326.075	-7.31
326.207	5.69
326.339	3.69
326.47	-1.31
326.602	-4.31
326.734	1.69
326.866	16.69
326.997	-0.31
327.129	-8.31
327.261	-15.31
327.392	-11.31
327.524	2.69
327.656	-9.31
327.787	-1.31
327.919	8.69
328.051	-9.31
328.182	22.69
328.314	20.69
328.446	10.69
328.577	7.69
328.709	4.69
328.841	-10.31
328.972	-5.31
329.104	8.69
329.235	2.69
329.367	-2.31
329.499	-9.31
329.63	0.69
329.762	3.69
329.893	7.69
330.025	0.69
330.156	-14.31
330.288	16.69
330.419	10.69
330.551	9.69
330.683	8.69
330.814	-0.31
330.946	-5.31
331.077	-17.31
331.208	-4.31
331.34	14.69
331.471	6.69
331.603	-2.31
331.734	-36.31
331.866	5.69
331.997	-4.31
332.129	-0.31
332.26	7.69
332.392	27.69
332.523	4.69
332.654	-31.31
332.786	-16.31
332.917	4.69
333.048	4.69
333.18	22.69
333.311	5.69
333.443	3.69
333.574	8.69
333.705	18.69
333.837	1.69
333.968	-1.31
334.099	4.69
334.231	-0.31
334.362	20.69
334.493	-1.31
334.624	10.69
334.756	3.69
334.887	3.69
335.018	-6.31
335.15	11.69
335.281	-4.31
335.412	-12.31
335.543	7.69
335.675	4.69
335.806	23.69
335.937	-11.31
336.068	24.69
336.199	32.69
336.331	-13.31
336.462	-7.31
336.593	20.69
336.724	-3.31
336.855	-13.31
336.986	9.69
337.118	1.69
337.249	16.69
337.38	20.69
337.511	11.69
337.642	8.69
337.773	-9.31
337.904	11.69
338.035	10.69
338.166	4.69
338.298	1.69
338.429	7.69
338.56	14.69
338.691	8.69
338.822	8.69
338.953	16.69
339.084	22.69
339.215	16.69
339.346	-9.31
339.477	0.69
339.608	14.69
339.739	-2.31
339.87	-3.31
340.001	-4.31
340.132	5.69
340.263	-12.31
340.394	17.69
340.525	-18.31
340.656	-0.31
340.787	-8.31
340.918	26.69
341.049	10.69
341.179	2.69
341.31	1.69
341.441	13.69
341.572	19.69
341.703	7.69
341.834	2.69
341.965	23.69
342.096	12.69
342.227	-12.31
342.357	-1.31
342.488	13.69
342.619	9.69
342.75	14.69
342.881	10.69
343.012	21.69
343.142	25.69
343.273	2.69
343.404	-0.31
343.535	47.69
343.666	28.69
343.796	17.69
343.927	7.69
344.058	10.69
344.189	20.69
344.319	12.69
344.45	-1.31
344.581	-1.31
344.712	-10.31
344.842	4.69
344.973	1.69
345.104	23.69
345.234	11.69
345.365	1.69
345.496	-9.31
345.626	9.69
345.757	18.69
345.888	-11.31
346.018	14.69
346.149	-0.31
346.28	11.69
346.41	-8.31
346.541	7.69
346.672	-6.31
346.802	19.69
346.933	27.69
347.063	-3.31
347.194	-2.31
347.325	-4.31
347.455	7.69
347.586	10.69
347.716	-13.31
347.847	15.69
347.977	5.69
348.108	20.69
348.238	5.69
348.369	-1.31
348.499	-0.31
348.63	0.69
348.76	12.69
348.891	0.69
349.021	16.69
349.152	2.69
349.282	14.69
349.413	-12.31
349.543	9.69
349.674	5.69
349.804	11.69
349.935	-2.31
350.065	7.69
350.196	2.69
350.326	-1.31
350.456	9.69
350.587	9.69
350.717	-1.31
350.848	15.69
350.978	15.69
351.108	-16.31
351.239	12.69
351.369	-12.31
351.499	-7.31
351.63	13.69
351.76	-7.31
351.89	-3.31
352.021	9.69
352.151	3.69
352.281	15.69
352.412	21.69
352.542	-14.31
352.672	6.69
352.803	-4.31
352.933	-8.31
353.063	-4.31
353.193	12.69
353.324	15.69
353.454	15.69
353.584	23.69
353.714	15.69
353.845	16.69
353.975	-9.31
354.105	4.69
354.235	16.69
354.365	3.69
354.496	18.69
354.626	-12.31
354.756	5.69
354.886	15.69
355.016	12.69
355.146	-4.31
355.277	8.69
355.407	1.69
355.537	6.69
355.667	19.69
355.797	2.69
355.927	4.69
356.057	22.69
356.187	-7.31
356.318	-10.31
356.448	-2.31
356.578	6.69
356.708	20.69
356.838	-6.31
356.968	4.69
357.098	3.69
357.228	9.69
357.358	-3.31
357.488	0.69
357.618	34.69
357.748	16.69
357.878	16.69
358.008	-2.31
358.138	-24.31
358.268	-19.31
358.398	25.69
358.528	-17.31
358.658	2.69
358.788	-9.31
358.918	24.69
359.048	7.69
359.178	21.69
359.308	0.69
359.438	13.69
359.568	7.69
359.698	11.69
359.827	5.69
359.957	8.69
360.087	-3.31
360.217	-8.31
360.347	7.69
360.477	24.69
360.607	0.69
360.737	25.69
360.866	28.69
360.996	-17.31
361.126	-16.31
361.256	33.69
361.386	20.69
361.516	11.69
361.645	-17.31
361.775	25.69
361.905	-1.31
362.035	-8.31
362.165	25.69
362.294	15.69
362.424	10.69
362.554	6.69
362.684	-13.31
362.813	-7.31
362.943	14.69
363.073	10.69
363.203	11.69
363.332	33.69
363.462	-17.31
363.592	-24.31
363.721	-8.31
363.851	13.69
363.981	19.69
364.111	13.69
364.24	-25.31
364.37	18.69
364.5	19.69
364.629	18.69
364.759	3.69
364.888	16.69
365.018	-1.31
365.148	-4.31
365.277	10.69
365.407	5.69
365.537	8.69
365.666	11.69
365.796	-15.31
365.925	-0.31
366.055	1.69
366.184	0.69
366.314	-5.31
366.444	15.69
366.573	4.69
366.703	-1.31
366.832	19.69
366.962	16.69
367.091	12.69
367.221	9.69
367.35	-2.31
367.48	46.69
367.609	4.69
367.739	17.69
367.868	1.69
367.998	8.69
368.127	30.69
368.257	18.69
368.386	11.69
368.516	10.69
368.645	18.69
368.775	20.69
368.904	7.69
369.033	3.69
369.163	0.69
369.292	22.69
369.422	11.69
369.551	9.69
369.68	10.69
369.81	25.69
369.939	10.69
370.069	39.69
370.198	11.69
370.327	-21.31
370.457	-3.31
370.586	-8.31
370.715	0.69
370.845	-25.31
370.974	7.69
371.103	25.69
371.233	6.69
371.362	19.69
371.491	-4.31
371.621	22.69
371.75	8.69
371.879	-7.31
372.008	-2.31
372.138	20.69
372.267	9.69
372.396	-2.31
372.525	0.69
372.655	3.69
372.784	0.69
372.913	15.69
373.042	7.69
373.172	15.69
373.301	-14.31
373.43	-22.31
373.559	-12.31
373.688	-2.31
373.818	6.69
373.947	16.69
374.076	-2.31
374.205	11.69
374.334	1.69
374.463	6.69
374.593	7.69
374.722	33.69
374.851	24.69
374.98	-0.31
375.109	-4.31
375.238	12.69
375.367	23.69
375.496	-5.31
375.625	3.69
375.755	33.69
375.884	25.69
376.013	29.69
376.142	3.69
376.271	9.69
376.4	-9.31
376.529	4.69
376.658	26.69
376.787	13.69
376.916	3.69
377.045	9.69
377.174	7.69
377.303	5.69
377.432	17.69
377.561	8.69
377.69	-10.31
377.819	4.69
377.948	10.69
378.077	-0.31
378.206	-2.31
378.335	12.69
378.464	4.69
378.593	28.69
378.722	5.69
378.851	16.69
378.98	39.69
379.108	-3.31
379.237	-15.31
379.366	11.69
379.495	11.69
379.624	9.69
379.753	18.69
379.882	14.69
380.011	-14.31
380.14	0.69
380.268	-0.31
380.397	-15.31
380.526	17.69
380.655	-9.31
380.784	-19.31
380.913	-10.31
381.041	-2.31
381.17	-15.31
381.299	2.69
381.428	16.69
381.557	5.69
381.685	8.69
381.814	15.69
381.943	-5.31
382.072	-14.31
382.2	-12.31
382.329	16.69
382.458	-4.31
382.587	21.69
382.715	28.69
382.844	0.69
382.973	4.69
383.102	4.69
383.23	-2.31
383.359	4.69
383.488	12.69
383.616	-6.31
383.745	-13.31
383.874	-5.31
384.003	-15.31
384.131	-6.31
384.26	9.69
384.389	9.69
384.517	-9.31
384.646	-10.31
384.774	13.69
384.903	25.69
385.032	16.69
385.16	13.69
385.289	-5.31
385.418	4.69
385.546	8.69
385.675	5.69
385.803	14.69
385.932	25.69
386.06	13.69
386.189	-4.31
386.318	1.69
386.446	-5.31
386.575	-2.31
386.703	19.69
386.832	-0.31
386.96	-25.31
387.089	17.69
387.217	10.69
387.346	3.69
387.474	0.69
387.603	12.69
387.731	12.69
387.86	5.69
387.988	-5.31
388.117	29.69
388.245	18.69
388.374	-2.31
388.502	8.69
388.631	14.69
388.759	6.69
388.888	16.69
389.016	-14.31
389.144	3.69
389.273	-2.31
389.401	9.69
389.53	-20.31
389.658	-1.31
389.786	-9.31
389.915	-17.31
390.043	-18.31
390.172	4.69
390.3	31.69
390.428	11.69
390.557	8.69
390.685	6.69
390.813	-0.31
390.942	19.69
391.07	0.69
391.198	-7.31
391.327	5.69
391.455	-15.31
391.583	25.69
391.712	7.69
391.84	11.69
391.968	-12.31
392.096	-11.31
392.225	-8.31
392.353	21.69
392.481	8.69
392.609	18.69
392.738	2.69
392.866	3.69
392.994	-22.31
393.122	33.69
393.251	-5.31
393.379	2.69
393.507	-38.31
393.635	-6.31
393.764	4.69
393.892	20.69
394.02	-10.31
394.148	-2.31
394.276	7.69
394.404	16.69
394.533	4.69
394.661	10.69
394.789	9.69
394.917	22.69
395.045	-0.31
395.173	1.69
395.302	-1.31
395.43	15.69
395.558	14.69
395.686	14.69
395.814	0.69
395.942	-9.31
396.07	13.69
396.198	9.69
396.326	18.69
396.454	16.69
396.582	7.69
396.711	-6.31
396.839	18.69
396.967	-3.31
397.095	6.69
397.223	23.69
397.351	27.69
397.479	22.69
397.607	10.69
397.735	10.69
397.863	22.69
397.991	19.69
398.119	-2.31
398.247	-13.31
398.375	-1.31
398.503	9.69
398.631	11.69
398.759	-6.31
398.887	-11.31
399.015	-13.31
399.143	2.69
399.271	9.69
399.399	-8.31
399.526	4.69
399.654	19.69
399.782	-12.31
399.91	13.69
400.038	16.69
400.166	18.69
400.294	-6.31
400.422	18.69
400.55	10.69
400.678	-8.31
400.805	16.69
400.933	-8.31
401.061	8.69
401.189	3.69
401.317	10.69
401.445	13.69
401.573	24.69
401.7	-11.31
401.828	-11.31
401.956	-11.31
402.084	8.69
402.212	15.69
402.34	8.69
402.467	10.69
402.595	18.69
402.723	16.69
402.851	23.69
402.978	-8.31
403.106	0.69
403.234	-13.31
403.362	34.69
403.489	-0.31
403.617	-4.31
403.745	6.69
403.873	3.69
404	17.69
404.128	14.69
404.256	18.69
404.384	18.69
404.511	13.69
404.639	-1.31
404.767	-1.31
404.894	8.69
405.022	23.69
405.15	8.69
405.277	-14.31
405.405	-1.31
405.533	-1.31
405.66	-22.31
405.788	-13.31
405.916	-23.31
406.043	-11.31
406.171	-10.31
406.299	3.69
406.426	12.69
406.554	-3.31
406.681	30.69
406.809	6.69
406.937	-4.31
407.064	-11.31
407.192	11.69
407.319	13.69
407.447	4.69
407.574	21.69
407.702	5.69
407.83	-0.31
407.957	-10.31
408.085	14.69
408.212	4.69
408.34	6.69
408.467	-8.31
408.595	-7.31
408.722	20.69
408.85	17.69
408.977	-12.31
409.105	12.69
409.232	12.69
409.36	19.69
409.487	15.69
409.615	10.69
409.742	27.69
409.87	36.69
409.997	52.69
410.125	59.69
410.252	53.69
410.379	50.69
410.507	28.69
410.634	14.69
410.762	3.69
410.889	17.69
411.017	17.69
411.144	11.69
411.271	2.69
411.399	4.69
411.526	3.69
411.653	12.69
411.781	34.69
411.908	12.69
412.036	7.69
412.163	16.69
412.29	10.69
412.418	10.69
412.545	10.69
412.672	-3.31
412.8	33.69
412.927	13.69
413.054	18.69
413.182	2.69
413.309	-8.31
413.436	-14.31
413.564	8.69
413.691	16.69
413.818	9.69
413.945	-19.31
414.073	3.69
414.2	16.69
414.327	7.69
414.454	26.69
414.582	8.69
414.709	-13.31
414.836	5.69
414.963	11.69
415.091	-8.31
415.218	18.69
415.345	3.69
415.472	5.69
415.6	-5.31
415.727	-5.31
415.854	2.69
415.981	-7.31
416.108	-3.31
416.236	5.69
416.363	22.69
416.49	5.69
416.617	1.69
416.744	15.69
416.871	5.69
416.998	8.69
417.126	-6.31
417.253	-7.31
417.38	7.69
417.507	11.69
417.634	8.69
417.761	18.69
417.888	12.69
418.015	10.69
418.143	22.69
418.27	24.69
418.397	3.69
418.524	19.69
418.651	-0.31
418.778	24.69
418.905	30.69
419.032	14.69
419.159	10.69
419.286	26.69
419.413	34.69
419.54	23.69
419.667	15.69
419.794	-5.31
419.921	2.69
420.048	5.69
420.175	11.69
420.302	-6.31
