Data from LowRes_H2_15_26_11_07_2024_HR4C61881__1__15-28-13-737.txt Node

Date: Thu Nov 07 15:28:13 EST 2024
User: crc00042
Spectrometer: HR4C6188
Trigger mode: 4
Integration Time (sec): 1.000000E-1
Scans to average: 1
Electric dark correction enabled: true
Nonlinearity correction enabled: false
Boxcar width: 0
XAxis mode: Wavelengths
Number of Pixels in Spectrum: 3648
>>>>>Begin Spectral Data<<<<<
245.66	-98.92
245.797	-98.92
245.934	-98.92
246.071	-58.92
246.208	20.08
246.344	-6.92
246.481	-18.92
246.618	-23.92
246.755	12.08
246.892	9.08
247.029	-3.92
247.165	-16.92
247.302	12.08
247.439	2.08
247.576	12.08
247.713	-4.92
247.849	24.08
247.986	4.08
248.123	19.08
248.26	-7.92
248.396	9.08
248.533	0.08
248.67	13.08
248.806	3.08
248.943	-6.92
249.08	-4.92
249.216	29.08
249.353	-5.92
249.49	-12.92
249.626	9.08
249.763	0.08
249.9	-10.92
250.036	-4.92
250.173	18.08
250.309	-3.92
250.446	3.08
250.582	3.08
250.719	-19.92
250.856	-8.92
250.992	-6.92
251.129	-4.92
251.265	-20.92
251.402	-10.92
251.538	-6.92
251.675	-14.92
251.811	12.08
251.948	23.08
252.084	0.08
252.221	9.08
252.357	-8.92
252.493	16.08
252.63	1.08
252.766	11.08
252.903	-1.92
253.039	2.08
253.175	-13.92
253.312	10.08
253.448	-7.92
253.585	-19.92
253.721	3.08
253.857	3.08
253.994	23.08
254.13	-0.92
254.266	8.08
254.403	-3.92
254.539	16.08
254.675	13.08
254.811	25.08
254.948	7.08
255.084	-2.92
255.22	-3.92
255.356	12.08
255.493	3.08
255.629	4.08
255.765	8.08
255.901	9.08
256.037	7.08
256.174	3.08
256.31	-1.92
256.446	-12.92
256.582	2.08
256.718	27.08
256.854	21.08
256.991	14.08
257.127	19.08
257.263	10.08
257.399	8.08
257.535	-7.92
257.671	-16.92
257.807	6.08
257.943	-11.92
258.079	-19.92
258.215	0.08
258.351	29.08
258.487	-3.92
258.623	8.08
258.759	-8.92
258.895	-2.92
259.031	-6.92
259.167	-10.92
259.303	34.08
259.439	0.08
259.575	-14.92
259.711	-7.92
259.847	-17.92
259.983	8.08
260.119	2.08
260.255	-3.92
260.391	18.08
260.527	4.08
260.663	12.08
260.799	-6.92
260.934	3.08
261.07	-2.92
261.206	-3.92
261.342	-9.92
261.478	15.08
261.614	19.08
261.749	-2.92
261.885	-23.92
262.021	-2.92
262.157	-1.92
262.293	1.08
262.428	-16.92
262.564	-6.92
262.7	4.08
262.836	5.08
262.971	9.08
263.107	-7.92
263.243	14.08
263.378	1.08
263.514	-21.92
263.65	-12.92
263.785	-13.92
263.921	0.08
264.057	4.08
264.192	5.08
264.328	7.08
264.464	-4.92
264.599	6.08
264.735	14.08
264.871	-24.92
265.006	6.08
265.142	0.08
265.277	-19.92
265.413	17.08
265.548	16.08
265.684	21.08
265.819	7.08
265.955	-10.92
266.091	-12.92
266.226	-4.92
266.362	11.08
266.497	17.08
266.633	-26.92
266.768	-6.92
266.903	19.08
267.039	11.08
267.174	-3.92
267.31	1.08
267.445	10.08
267.581	-5.92
267.716	13.08
267.851	9.08
267.987	14.08
268.122	12.08
268.258	5.08
268.393	5.08
268.528	1.08
268.664	-5.92
268.799	-11.92
268.934	3.08
269.07	-6.92
269.205	-12.92
269.34	7.08
269.476	0.08
269.611	-7.92
269.746	3.08
269.881	11.08
270.017	19.08
270.152	-5.92
270.287	8.08
270.422	17.08
270.558	-0.92
270.693	30.08
270.828	-10.92
270.963	0.08
271.098	1.08
271.234	-16.92
271.369	14.08
271.504	9.08
271.639	-11.92
271.774	2.08
271.909	-5.92
272.045	-16.92
272.18	-1.92
272.315	-3.92
272.45	26.08
272.585	-14.92
272.72	-9.92
272.855	6.08
272.99	25.08
273.125	-10.92
273.26	-5.92
273.395	-7.92
273.53	-8.92
273.665	19.08
273.8	13.08
273.935	11.08
274.07	3.08
274.205	-6.92
274.34	4.08
274.475	-11.92
274.61	10.08
274.745	-0.92
274.88	20.08
275.015	-16.92
275.15	3.08
275.285	0.08
275.42	-5.92
275.555	6.08
275.69	-2.92
275.825	-9.92
275.959	4.08
276.094	-11.92
276.229	0.08
276.364	-11.92
276.499	-9.92
276.634	4.08
276.768	9.08
276.903	-2.92
277.038	16.08
277.173	-2.92
277.308	13.08
277.442	-5.92
277.577	14.08
277.712	1.08
277.847	7.08
277.981	2.08
278.116	-31.92
278.251	-12.92
278.386	17.08
278.52	17.08
278.655	1.08
278.79	1.08
278.924	4.08
279.059	5.08
279.194	-18.92
279.328	16.08
279.463	5.08
279.598	8.08
279.732	1.08
279.867	10.08
280.001	1.08
280.136	-5.92
280.271	-3.92
280.405	11.08
280.54	11.08
280.674	5.08
280.809	15.08
280.943	11.08
281.078	4.08
281.213	12.08
281.347	22.08
281.482	12.08
281.616	4.08
281.751	3.08
281.885	-17.92
282.02	1.08
282.154	7.08
282.288	-7.92
282.423	-12.92
282.557	-21.92
282.692	-11.92
282.826	-4.92
282.961	20.08
283.095	5.08
283.229	-14.92
283.364	-29.92
283.498	-14.92
283.633	2.08
283.767	4.08
283.901	7.08
284.036	-10.92
284.17	-18.92
284.304	-3.92
284.439	6.08
284.573	0.08
284.707	13.08
284.842	-11.92
284.976	-20.92
285.11	-17.92
285.244	-2.92
285.379	56.08
285.513	7.08
285.647	15.08
285.781	1.08
285.916	23.08
286.05	3.08
286.184	25.08
286.318	5.08
286.453	-13.92
286.587	-7.92
286.721	-7.92
286.855	15.08
286.989	9.08
287.123	-4.92
287.258	-2.92
287.392	10.08
287.526	7.08
287.66	-2.92
287.794	-5.92
287.928	-3.92
288.062	6.08
288.196	-2.92
288.33	8.08
288.464	18.08
288.598	8.08
288.733	17.08
288.867	24.08
289.001	2.08
289.135	28.08
289.269	-12.92
289.403	-3.92
289.537	-3.92
289.671	-8.92
289.805	-23.92
289.939	1.08
290.073	-2.92
290.207	16.08
290.34	12.08
290.474	15.08
290.608	17.08
290.742	-19.92
290.876	-2.92
291.01	-7.92
291.144	13.08
291.278	17.08
291.412	5.08
291.546	4.08
291.679	-1.92
291.813	-0.92
291.947	10.08
292.081	-2.92
292.215	12.08
292.349	7.08
292.482	8.08
292.616	-18.92
292.75	4.08
292.884	5.08
293.018	10.08
293.151	-11.92
293.285	9.08
293.419	-9.92
293.553	-8.92
293.686	-14.92
293.82	15.08
293.954	6.08
294.088	11.08
294.221	-19.92
294.355	-8.92
294.489	16.08
294.622	4.08
294.756	-4.92
294.89	27.08
295.023	0.08
295.157	20.08
295.291	17.08
295.424	23.08
295.558	5.08
295.691	4.08
295.825	0.08
295.959	7.08
296.092	-11.92
296.226	-5.92
296.359	-4.92
296.493	22.08
296.627	-1.92
296.76	-10.92
296.894	-4.92
297.027	5.08
297.161	-1.92
297.294	-6.92
297.428	5.08
297.561	32.08
297.695	-16.92
297.828	-9.92
297.962	0.08
298.095	-20.92
298.229	-10.92
298.362	-13.92
298.495	-24.92
298.629	-5.92
298.762	-7.92
298.896	1.08
299.029	-12.92
299.162	-7.92
299.296	-6.92
299.429	-0.92
299.563	-13.92
299.696	-12.92
299.829	5.08
299.963	11.08
300.096	12.08
300.229	23.08
300.363	3.08
300.496	-5.92
300.629	-14.92
300.763	-2.92
300.896	-16.92
301.029	5.08
301.162	-0.92
301.296	-24.92
301.429	-3.92
301.562	-3.92
301.695	-0.92
301.829	10.08
301.962	4.08
302.095	-7.92
302.228	-15.92
302.362	17.08
302.495	-16.92
302.628	10.08
302.761	-1.92
302.894	0.08
303.027	15.08
303.161	-8.92
303.294	1.08
303.427	30.08
303.56	2.08
303.693	-16.92
303.826	19.08
303.959	0.08
304.092	4.08
304.225	-6.92
304.359	-5.92
304.492	15.08
304.625	11.08
304.758	12.08
304.891	-10.92
305.024	3.08
305.157	0.08
305.29	-22.92
305.423	-20.92
305.556	26.08
305.689	23.08
305.822	-9.92
305.955	-5.92
306.088	2.08
306.221	3.08
306.354	-0.92
306.487	-7.92
306.62	-8.92
306.752	4.08
306.885	16.08
307.018	-9.92
307.151	1.08
307.284	9.08
307.417	11.08
307.55	20.08
307.683	5.08
307.816	26.08
307.948	2.08
308.081	24.08
308.214	9.08
308.347	6.08
308.48	-3.92
308.613	-27.92
308.745	15.08
308.878	-4.92
309.011	2.08
309.144	-0.92
309.277	10.08
309.409	13.08
309.542	1.08
309.675	18.08
309.808	3.08
309.94	24.08
310.073	-3.92
310.206	-6.92
310.339	13.08
310.471	-4.92
310.604	21.08
310.737	11.08
310.869	0.08
311.002	-15.92
311.135	0.08
311.267	-4.92
311.4	-14.92
311.533	17.08
311.665	-10.92
311.798	-10.92
311.93	0.08
312.063	17.08
312.196	0.08
312.328	0.08
312.461	-10.92
312.593	-7.92
312.726	7.08
312.859	4.08
312.991	17.08
313.124	-31.92
313.256	2.08
313.389	5.08
313.521	15.08
313.654	3.08
313.786	-9.92
313.919	-7.92
314.051	-9.92
314.184	16.08
314.316	3.08
314.449	-11.92
314.581	10.08
314.714	19.08
314.846	18.08
314.978	-31.92
315.111	-7.92
315.243	7.08
315.376	6.08
315.508	13.08
315.641	-2.92
315.773	10.08
315.905	14.08
316.038	7.08
316.17	-6.92
316.302	1.08
316.435	-4.92
316.567	2.08
316.699	11.08
316.832	-29.92
316.964	-14.92
317.096	-10.92
317.229	-2.92
317.361	-19.92
317.493	10.08
317.625	-0.92
317.758	7.08
317.89	11.08
318.022	-2.92
318.155	-9.92
318.287	2.08
318.419	-6.92
318.551	8.08
318.683	-14.92
318.816	-13.92
318.948	-12.92
319.08	2.08
319.212	1.08
319.344	-0.92
319.477	22.08
319.609	9.08
319.741	10.08
319.873	-1.92
320.005	1.08
320.137	4.08
320.269	5.08
320.401	1.08
320.534	14.08
320.666	-21.92
320.798	-13.92
320.93	16.08
321.062	-23.92
321.194	-9.92
321.326	12.08
321.458	5.08
321.59	-0.92
321.722	-9.92
321.854	0.08
321.986	1.08
322.118	8.08
322.25	-12.92
322.382	17.08
322.514	-12.92
322.646	-11.92
322.778	-0.92
322.91	-7.92
323.042	2.08
323.174	1.08
323.306	-18.92
323.438	-16.92
323.57	-2.92
323.702	0.08
323.834	-12.92
323.966	-17.92
324.097	-10.92
324.229	22.08
324.361	-4.92
324.493	-7.92
324.625	-12.92
324.757	4.08
324.889	-6.92
325.021	-2.92
325.152	8.08
325.284	14.08
325.416	-15.92
325.548	14.08
325.68	15.08
325.811	12.08
325.943	3.08
326.075	-19.92
326.207	10.08
326.339	4.08
326.47	-3.92
326.602	0.08
326.734	10.08
326.866	17.08
326.997	-11.92
327.129	1.08
327.261	3.08
327.392	-28.92
327.524	-7.92
327.656	5.08
327.787	10.08
327.919	9.08
328.051	8.08
328.182	0.08
328.314	20.08
328.446	7.08
328.577	16.08
328.709	-0.92
328.841	-19.92
328.972	-24.92
329.104	-10.92
329.235	2.08
329.367	-23.92
329.499	0.08
329.63	20.08
329.762	-4.92
329.893	4.08
330.025	-3.92
330.156	-3.92
330.288	8.08
330.419	14.08
330.551	15.08
330.683	-0.92
330.814	-0.92
330.946	18.08
331.077	-17.92
331.208	-0.92
331.34	20.08
331.471	-4.92
331.603	1.08
331.734	-26.92
331.866	-10.92
331.997	-3.92
332.129	-8.92
332.26	0.08
332.392	15.08
332.523	-7.92
332.654	-16.92
332.786	1.08
332.917	-5.92
333.048	2.08
333.18	8.08
333.311	-8.92
333.443	-6.92
333.574	8.08
333.705	1.08
333.837	-18.92
333.968	9.08
334.099	29.08
334.231	10.08
334.362	-2.92
334.493	5.08
334.624	24.08
334.756	11.08
334.887	5.08
335.018	8.08
335.15	15.08
335.281	32.08
335.412	22.08
335.543	2.08
335.675	8.08
335.806	-4.92
335.937	-8.92
336.068	-4.92
336.199	34.08
336.331	-2.92
336.462	-8.92
336.593	18.08
336.724	2.08
336.855	6.08
336.986	16.08
337.118	6.08
337.249	6.08
337.38	0.08
337.511	-11.92
337.642	-0.92
337.773	10.08
337.904	20.08
338.035	28.08
338.166	-3.92
338.298	11.08
338.429	-0.92
338.56	10.08
338.691	7.08
338.822	23.08
338.953	30.08
339.084	28.08
339.215	23.08
339.346	0.08
339.477	-3.92
339.608	-8.92
339.739	-16.92
339.87	-4.92
340.001	-12.92
340.132	8.08
340.263	1.08
340.394	11.08
340.525	-0.92
340.656	-23.92
340.787	-15.92
340.918	31.08
341.049	21.08
341.179	-5.92
341.31	-6.92
341.441	13.08
341.572	21.08
341.703	19.08
341.834	2.08
341.965	18.08
342.096	-11.92
342.227	-11.92
342.357	-8.92
342.488	14.08
342.619	4.08
342.75	15.08
342.881	-11.92
343.012	6.08
343.142	18.08
343.273	-7.92
343.404	19.08
343.535	37.08
343.666	30.08
343.796	23.08
343.927	24.08
344.058	33.08
344.189	30.08
344.319	30.08
344.45	0.08
344.581	-9.92
344.712	-19.92
344.842	-9.92
344.973	-3.92
345.104	8.08
345.234	12.08
345.365	-15.92
345.496	-0.92
345.626	-3.92
345.757	7.08
345.888	-16.92
346.018	7.08
346.149	3.08
346.28	20.08
346.41	-8.92
346.541	17.08
346.672	-5.92
346.802	8.08
346.933	16.08
347.063	5.08
347.194	-6.92
347.325	19.08
347.455	16.08
347.586	-4.92
347.716	-13.92
347.847	0.08
347.977	-6.92
348.108	7.08
348.238	-1.92
348.369	-4.92
348.499	24.08
348.63	6.08
348.76	0.08
348.891	1.08
349.021	16.08
349.152	5.08
349.282	2.08
349.413	-17.92
349.543	24.08
349.674	14.08
349.804	8.08
349.935	-17.92
350.065	-0.92
350.196	-8.92
350.326	-4.92
350.456	3.08
350.587	21.08
350.717	5.08
350.848	17.08
350.978	19.08
351.108	-9.92
351.239	17.08
351.369	20.08
351.499	3.08
351.63	3.08
351.76	-13.92
351.89	25.08
352.021	1.08
352.151	1.08
352.281	14.08
352.412	27.08
352.542	-0.92
352.672	-2.92
352.803	-8.92
352.933	-10.92
353.063	25.08
353.193	0.08
353.324	1.08
353.454	20.08
353.584	29.08
353.714	-6.92
353.845	-18.92
353.975	-11.92
354.105	4.08
354.235	12.08
354.365	-7.92
354.496	6.08
354.626	-8.92
354.756	-1.92
354.886	0.08
355.016	11.08
355.146	8.08
355.277	4.08
355.407	-8.92
355.537	8.08
355.667	0.08
355.797	13.08
355.927	-2.92
356.057	10.08
356.187	-12.92
356.318	-18.92
356.448	-5.92
356.578	22.08
356.708	13.08
356.838	-6.92
356.968	-12.92
357.098	13.08
357.228	14.08
357.358	5.08
357.488	-21.92
357.618	23.08
357.748	8.08
357.878	9.08
358.008	9.08
358.138	-2.92
358.268	-22.92
358.398	-4.92
358.528	-15.92
358.658	-3.92
358.788	-1.92
358.918	3.08
359.048	9.08
359.178	7.08
359.308	-1.92
359.438	24.08
359.568	14.08
359.698	9.08
359.827	6.08
359.957	7.08
360.087	3.08
360.217	2.08
360.347	6.08
360.477	11.08
360.607	-21.92
360.737	15.08
360.866	-8.92
360.996	-2.92
361.126	1.08
361.256	28.08
361.386	15.08
361.516	8.08
361.645	-11.92
361.775	4.08
361.905	-18.92
362.035	18.08
362.165	-10.92
362.294	9.08
362.424	9.08
362.554	4.08
362.684	-12.92
362.813	-6.92
362.943	21.08
363.073	8.08
363.203	10.08
363.332	15.08
363.462	-12.92
363.592	7.08
363.721	-3.92
363.851	-10.92
363.981	-8.92
364.111	18.08
364.24	-3.92
364.37	-0.92
364.5	13.08
364.629	3.08
364.759	-12.92
364.888	-6.92
365.018	11.08
365.148	-8.92
365.277	9.08
365.407	5.08
365.537	17.08
365.666	-2.92
365.796	5.08
365.925	31.08
366.055	16.08
366.184	-10.92
366.314	19.08
366.444	18.08
366.573	-3.92
366.703	-6.92
366.832	1.08
366.962	-6.92
367.091	25.08
367.221	22.08
367.35	19.08
367.48	31.08
367.609	8.08
367.739	9.08
367.868	-4.92
367.998	6.08
368.127	10.08
368.257	9.08
368.386	23.08
368.516	19.08
368.645	1.08
368.775	11.08
368.904	13.08
369.033	1.08
369.163	0.08
369.292	26.08
369.422	21.08
369.551	29.08
369.68	29.08
369.81	12.08
369.939	4.08
370.069	11.08
370.198	2.08
370.327	-4.92
370.457	14.08
370.586	13.08
370.715	-0.92
370.845	-13.92
370.974	9.08
371.103	21.08
371.233	0.08
371.362	18.08
371.491	-17.92
371.621	11.08
371.75	7.08
371.879	8.08
372.008	0.08
372.138	-3.92
372.267	26.08
372.396	6.08
372.525	11.08
372.655	-0.92
372.784	-3.92
372.913	13.08
373.042	22.08
373.172	29.08
373.301	-0.92
373.43	-8.92
373.559	13.08
373.688	17.08
373.818	25.08
373.947	9.08
374.076	-3.92
374.205	12.08
374.334	-10.92
374.463	-14.92
374.593	5.08
374.722	13.08
374.851	24.08
374.98	-8.92
375.109	-6.92
375.238	-1.92
375.367	16.08
375.496	-8.92
375.625	-0.92
375.755	24.08
375.884	33.08
376.013	36.08
376.142	-19.92
376.271	-16.92
376.4	-1.92
376.529	2.08
376.658	-3.92
376.787	5.08
376.916	14.08
377.045	-9.92
377.174	11.08
377.303	5.08
377.432	16.08
377.561	11.08
377.69	-17.92
377.819	25.08
377.948	-1.92
378.077	-0.92
378.206	12.08
378.335	2.08
378.464	19.08
378.593	35.08
378.722	-2.92
378.851	4.08
378.98	17.08
379.108	-7.92
379.237	-8.92
379.366	8.08
379.495	11.08
379.624	2.08
379.753	4.08
379.882	-3.92
380.011	-10.92
380.14	-3.92
380.268	-3.92
380.397	6.08
380.526	20.08
380.655	8.08
380.784	-19.92
380.913	0.08
381.041	-4.92
381.17	-12.92
381.299	13.08
381.428	20.08
381.557	-10.92
381.685	4.08
381.814	18.08
381.943	3.08
382.072	-12.92
382.2	-7.92
382.329	0.08
382.458	7.08
382.587	25.08
382.715	21.08
382.844	18.08
382.973	11.08
383.102	-4.92
383.23	-14.92
383.359	-21.92
383.488	25.08
383.616	3.08
383.745	-12.92
383.874	2.08
384.003	-1.92
384.131	5.08
384.26	-4.92
384.389	1.08
384.517	-8.92
384.646	-20.92
384.774	5.08
384.903	28.08
385.032	17.08
385.16	4.08
385.289	10.08
385.418	-4.92
385.546	-7.92
385.675	19.08
385.803	25.08
385.932	9.08
386.06	-1.92
386.189	3.08
386.318	-0.92
386.446	6.08
386.575	17.08
386.703	4.08
386.832	-8.92
386.96	-15.92
387.089	20.08
387.217	6.08
387.346	9.08
387.474	13.08
387.603	4.08
387.731	10.08
387.86	26.08
387.988	1.08
388.117	9.08
388.245	-4.92
388.374	-4.92
388.502	6.08
388.631	-6.92
388.759	1.08
388.888	0.08
389.016	1.08
389.144	10.08
389.273	7.08
389.401	7.08
389.53	-4.92
389.658	-2.92
389.786	-16.92
389.915	-8.92
390.043	-18.92
390.172	-4.92
390.3	18.08
390.428	9.08
390.557	-9.92
390.685	-1.92
390.813	22.08
390.942	15.08
391.07	3.08
391.198	-11.92
391.327	6.08
391.455	-14.92
391.583	23.08
391.712	10.08
391.84	21.08
391.968	11.08
392.096	-7.92
392.225	5.08
392.353	6.08
392.481	-1.92
392.609	16.08
392.738	5.08
392.866	0.08
392.994	-2.92
393.122	24.08
393.251	13.08
393.379	4.08
393.507	-15.92
393.635	0.08
393.764	17.08
393.892	-0.92
394.02	5.08
394.148	4.08
394.276	0.08
394.404	29.08
394.533	-0.92
394.661	28.08
394.789	23.08
394.917	39.08
395.045	0.08
395.173	4.08
395.302	-5.92
395.43	14.08
395.558	22.08
395.686	16.08
395.814	19.08
395.942	7.08
396.07	-9.92
396.198	0.08
396.326	3.08
396.454	30.08
396.582	6.08
396.711	17.08
396.839	33.08
396.967	18.08
397.095	10.08
397.223	28.08
397.351	2.08
397.479	28.08
397.607	4.08
397.735	10.08
397.863	20.08
397.991	18.08
398.119	0.08
398.247	7.08
398.375	0.08
398.503	-4.92
398.631	3.08
398.759	10.08
398.887	-0.92
399.015	11.08
399.143	-0.92
399.271	2.08
399.399	6.08
399.526	23.08
399.654	1.08
399.782	0.08
399.91	31.08
400.038	22.08
400.166	-9.92
400.294	-17.92
400.422	1.08
400.55	9.08
400.678	1.08
400.805	14.08
400.933	6.08
401.061	14.08
401.189	-3.92
401.317	21.08
401.445	16.08
401.573	22.08
401.7	-5.92
401.828	-20.92
401.956	-7.92
402.084	15.08
402.212	6.08
402.34	12.08
402.467	9.08
402.595	25.08
402.723	4.08
402.851	32.08
402.978	17.08
403.106	11.08
403.234	19.08
403.362	32.08
403.489	19.08
403.617	17.08
403.745	27.08
403.873	-19.92
404	14.08
404.128	3.08
404.256	17.08
404.384	16.08
404.511	17.08
404.639	-7.92
404.767	6.08
404.894	20.08
405.022	6.08
405.15	25.08
405.277	-0.92
405.405	-6.92
405.533	1.08
405.66	3.08
405.788	-4.92
405.916	-1.92
406.043	-15.92
406.171	2.08
406.299	10.08
406.426	2.08
406.554	10.08
406.681	17.08
406.809	13.08
406.937	-0.92
407.064	6.08
407.192	10.08
407.319	-1.92
407.447	21.08
407.574	34.08
407.702	25.08
407.83	-12.92
407.957	-22.92
408.085	-2.92
408.212	15.08
408.34	-0.92
408.467	4.08
408.595	15.08
408.722	14.08
408.85	30.08
408.977	7.08
409.105	8.08
409.232	15.08
409.36	18.08
409.487	2.08
409.615	17.08
409.742	23.08
409.87	8.08
409.997	25.08
410.125	42.08
410.252	52.08
410.379	55.08
410.507	42.08
410.634	13.08
410.762	12.08
410.889	26.08
411.017	17.08
411.144	7.08
411.271	4.08
411.399	12.08
411.526	-0.92
411.653	4.08
411.781	23.08
411.908	21.08
412.036	21.08
412.163	27.08
412.29	4.08
412.418	18.08
412.545	26.08
412.672	10.08
412.8	22.08
412.927	5.08
413.054	29.08
413.182	26.08
413.309	-4.92
413.436	-12.92
413.564	8.08
413.691	4.08
413.818	28.08
413.945	12.08
414.073	6.08
414.2	14.08
414.327	13.08
414.454	10.08
414.582	8.08
414.709	-6.92
414.836	-8.92
414.963	-4.92
415.091	4.08
415.218	0.08
415.345	-5.92
415.472	20.08
415.6	6.08
415.727	8.08
415.854	2.08
415.981	-14.92
416.108	0.08
416.236	9.08
416.363	12.08
416.49	15.08
416.617	22.08
416.744	6.08
416.871	20.08
416.998	11.08
417.126	4.08
417.253	-13.92
417.38	3.08
417.507	-2.92
417.634	7.08
417.761	5.08
417.888	10.08
418.015	2.08
418.143	-8.92
418.27	9.08
418.397	20.08
418.524	7.08
418.651	13.08
418.778	2.08
418.905	20.08
419.032	16.08
419.159	27.08
419.286	17.08
419.413	23.08
419.54	23.08
419.667	-18.92
419.794	-27.92
419.921	-1.92
420.048	21.08
420.175	19.08
420.302	1.08
