Data from LowRes_H2_15_26_11_07_2024_HR4C61881__87__15-28-22-336.txt Node

Date: Thu Nov 07 15:28:22 EST 2024
User: crc00042
Spectrometer: HR4C6188
Trigger mode: 4
Integration Time (sec): 1.000000E-1
Scans to average: 1
Electric dark correction enabled: true
Nonlinearity correction enabled: false
Boxcar width: 0
XAxis mode: Wavelengths
Number of Pixels in Spectrum: 3648
>>>>>Begin Spectral Data<<<<<
245.66	-110.46
245.797	-110.46
245.934	-110.46
246.071	-76.46
246.208	6.54
246.344	-4.46
246.481	-8.46
246.618	-11.46
246.755	25.54
246.892	-9.46
247.029	-11.46
247.165	-1.46
247.302	15.54
247.439	-6.46
247.576	8.54
247.713	-10.46
247.849	28.54
247.986	-14.46
248.123	0.54
248.26	-11.46
248.396	22.54
248.533	0.54
248.67	0.54
248.806	8.54
248.943	-16.46
249.08	-11.46
249.216	10.54
249.353	-16.46
249.49	-19.46
249.626	6.54
249.763	1.54
249.9	-6.46
250.036	0.54
250.173	1.54
250.309	5.54
250.446	12.54
250.582	-8.46
250.719	0.54
250.856	-3.46
250.992	-3.46
251.129	5.54
251.265	6.54
251.402	-3.46
251.538	8.54
251.675	1.54
251.811	24.54
251.948	14.54
252.084	10.54
252.221	2.54
252.357	10.54
252.493	14.54
252.63	-8.46
252.766	25.54
252.903	-2.46
253.039	-13.46
253.175	2.54
253.312	-7.46
253.448	-16.46
253.585	-18.46
253.721	6.54
253.857	-18.46
253.994	20.54
254.13	1.54
254.266	21.54
254.403	-2.46
254.539	1.54
254.675	-0.46
254.811	3.54
254.948	-4.46
255.084	-9.46
255.22	-19.46
255.356	-11.46
255.493	-6.46
255.629	21.54
255.765	22.54
255.901	7.54
256.037	6.54
256.174	19.54
256.31	-4.46
256.446	-9.46
256.582	-7.46
256.718	20.54
256.854	29.54
256.991	2.54
257.127	12.54
257.263	-6.46
257.399	15.54
257.535	9.54
257.671	8.54
257.807	-9.46
257.943	9.54
258.079	-10.46
258.215	-17.46
258.351	22.54
258.487	13.54
258.623	38.54
258.759	14.54
258.895	-1.46
259.031	-4.46
259.167	-2.46
259.303	14.54
259.439	13.54
259.575	-6.46
259.711	-20.46
259.847	-18.46
259.983	19.54
260.119	14.54
260.255	8.54
260.391	26.54
260.527	14.54
260.663	20.54
260.799	4.54
260.934	-3.46
261.07	2.54
261.206	-10.46
261.342	-0.46
261.478	18.54
261.614	6.54
261.749	17.54
261.885	5.54
262.021	-10.46
262.157	21.54
262.293	2.54
262.428	-1.46
262.564	-7.46
262.7	-11.46
262.836	-13.46
262.971	13.54
263.107	0.54
263.243	12.54
263.378	19.54
263.514	-10.46
263.65	6.54
263.785	-9.46
263.921	-7.46
264.057	-7.46
264.192	3.54
264.328	1.54
264.464	1.54
264.599	2.54
264.735	28.54
264.871	-6.46
265.006	-3.46
265.142	-1.46
265.277	-6.46
265.413	10.54
265.548	27.54
265.684	27.54
265.819	17.54
265.955	-31.46
266.091	-10.46
266.226	-5.46
266.362	5.54
266.497	18.54
266.633	0.54
266.768	-15.46
266.903	8.54
267.039	6.54
267.174	20.54
267.31	-13.46
267.445	-18.46
267.581	-6.46
267.716	18.54
267.851	8.54
267.987	28.54
268.122	30.54
268.258	-8.46
268.393	-14.46
268.528	6.54
268.664	1.54
268.799	-12.46
268.934	1.54
269.07	-12.46
269.205	-1.46
269.34	29.54
269.476	-11.46
269.611	-12.46
269.746	26.54
269.881	9.54
270.017	12.54
270.152	-0.46
270.287	-0.46
270.422	4.54
270.558	-15.46
270.693	-4.46
270.828	9.54
270.963	11.54
271.098	-6.46
271.234	1.54
271.369	27.54
271.504	-0.46
271.639	-0.46
271.774	-7.46
271.909	-4.46
272.045	-11.46
272.18	2.54
272.315	-24.46
272.45	3.54
272.585	0.54
272.72	8.54
272.855	-7.46
272.99	20.54
273.125	-7.46
273.26	-25.46
273.395	-8.46
273.53	-11.46
273.665	20.54
273.8	2.54
273.935	-3.46
274.07	12.54
274.205	15.54
274.34	15.54
274.475	13.54
274.61	27.54
274.745	-4.46
274.88	6.54
275.015	-12.46
275.15	5.54
275.285	13.54
275.42	2.54
275.555	4.54
275.69	8.54
275.825	15.54
275.959	14.54
276.094	10.54
276.229	-1.46
276.364	-6.46
276.499	13.54
276.634	12.54
276.768	19.54
276.903	-1.46
277.038	22.54
277.173	2.54
277.308	-5.46
277.442	-20.46
277.577	2.54
277.712	4.54
277.847	-20.46
277.981	10.54
278.116	-10.46
278.251	-3.46
278.386	-2.46
278.52	18.54
278.655	-4.46
278.79	20.54
278.924	9.54
279.059	5.54
279.194	-0.46
279.328	38.54
279.463	20.54
279.598	9.54
279.732	23.54
279.867	14.54
280.001	0.54
280.136	-9.46
280.271	15.54
280.405	26.54
280.54	-3.46
280.674	-13.46
280.809	21.54
280.943	5.54
281.078	-17.46
281.213	22.54
281.347	17.54
281.482	-3.46
281.616	7.54
281.751	-4.46
281.885	-13.46
282.02	11.54
282.154	7.54
282.288	-21.46
282.423	-8.46
282.557	-9.46
282.692	-2.46
282.826	6.54
282.961	26.54
283.095	-11.46
283.229	-0.46
283.364	-8.46
283.498	-4.46
283.633	29.54
283.767	0.54
283.901	-24.46
284.036	-7.46
284.17	-19.46
284.304	-4.46
284.439	4.54
284.573	0.54
284.707	30.54
284.842	0.54
284.976	-5.46
285.11	3.54
285.244	4.54
285.379	41.54
285.513	3.54
285.647	14.54
285.781	13.54
285.916	17.54
286.05	-6.46
286.184	41.54
286.318	12.54
286.453	-2.46
286.587	-10.46
286.721	-3.46
286.855	3.54
286.989	10.54
287.123	4.54
287.258	-16.46
287.392	7.54
287.526	5.54
287.66	-1.46
287.794	-10.46
287.928	-0.46
288.062	23.54
288.196	3.54
288.33	-3.46
288.464	18.54
288.598	5.54
288.733	1.54
288.867	6.54
289.001	7.54
289.135	0.54
289.269	0.54
289.403	-0.46
289.537	14.54
289.671	11.54
289.805	-10.46
289.939	21.54
290.073	6.54
290.207	33.54
290.34	7.54
290.474	4.54
290.608	-3.46
290.742	-4.46
290.876	0.54
291.01	2.54
291.144	17.54
291.278	36.54
291.412	5.54
291.546	17.54
291.679	3.54
291.813	5.54
291.947	-1.46
292.081	13.54
292.215	-4.46
292.349	14.54
292.482	11.54
292.616	4.54
292.75	3.54
292.884	13.54
293.018	4.54
293.151	-17.46
293.285	14.54
293.419	-3.46
293.553	-4.46
293.686	-4.46
293.82	10.54
293.954	14.54
294.088	25.54
294.221	5.54
294.355	-16.46
294.489	2.54
294.622	-9.46
294.756	-16.46
294.89	3.54
295.023	1.54
295.157	2.54
295.291	2.54
295.424	15.54
295.558	-4.46
295.691	-7.46
295.825	2.54
295.959	6.54
296.092	-8.46
296.226	-10.46
296.359	25.54
296.493	17.54
296.627	14.54
296.76	1.54
296.894	3.54
297.027	12.54
297.161	-4.46
297.294	-24.46
297.428	-0.46
297.561	32.54
297.695	-6.46
297.828	-5.46
297.962	2.54
298.095	-14.46
298.229	7.54
298.362	-6.46
298.495	0.54
298.629	2.54
298.762	11.54
298.896	3.54
299.029	-20.46
299.162	-3.46
299.296	-9.46
299.429	2.54
299.563	3.54
299.696	-1.46
299.829	4.54
299.963	8.54
300.096	8.54
300.229	14.54
300.363	3.54
300.496	9.54
300.629	-22.46
300.763	6.54
300.896	-7.46
301.029	7.54
301.162	7.54
301.296	-12.46
301.429	5.54
301.562	-15.46
301.695	18.54
301.829	9.54
301.962	26.54
302.095	-0.46
302.228	-9.46
302.362	4.54
302.495	-12.46
302.628	-4.46
302.761	14.54
302.894	-4.46
303.027	9.54
303.161	2.54
303.294	-19.46
303.427	11.54
303.56	3.54
303.693	2.54
303.826	5.54
303.959	11.54
304.092	11.54
304.225	4.54
304.359	-2.46
304.492	11.54
304.625	-15.46
304.758	-5.46
304.891	-18.46
305.024	-2.46
305.157	-14.46
305.29	-11.46
305.423	4.54
305.556	22.54
305.689	5.54
305.822	6.54
305.955	-2.46
306.088	-0.46
306.221	9.54
306.354	4.54
306.487	-26.46
306.62	-20.46
306.752	6.54
306.885	19.54
307.018	0.54
307.151	4.54
307.284	9.54
307.417	-6.46
307.55	6.54
307.683	1.54
307.816	-3.46
307.948	-7.46
308.081	8.54
308.214	19.54
308.347	21.54
308.48	8.54
308.613	-2.46
308.745	2.54
308.878	-6.46
309.011	-2.46
309.144	11.54
309.277	-12.46
309.409	13.54
309.542	3.54
309.675	37.54
309.808	24.54
309.94	25.54
310.073	-17.46
310.206	16.54
310.339	31.54
310.471	-11.46
310.604	12.54
310.737	-10.46
310.869	7.54
311.002	9.54
311.135	-7.46
311.267	-16.46
311.4	-11.46
311.533	16.54
311.665	-0.46
311.798	-3.46
311.93	-10.46
312.063	5.54
312.196	20.54
312.328	15.54
312.461	1.54
312.593	5.54
312.726	8.54
312.859	12.54
312.991	-2.46
313.124	-18.46
313.256	10.54
313.389	14.54
313.521	-24.46
313.654	-11.46
313.786	-11.46
313.919	-5.46
314.051	-6.46
314.184	11.54
314.316	0.54
314.449	-19.46
314.581	4.54
314.714	-5.46
314.846	0.54
314.978	-6.46
315.111	-3.46
315.243	13.54
315.376	1.54
315.508	12.54
315.641	12.54
315.773	24.54
315.905	6.54
316.038	-3.46
316.17	2.54
316.302	17.54
316.435	1.54
316.567	-6.46
316.699	14.54
316.832	-10.46
316.964	-13.46
317.096	3.54
317.229	10.54
317.361	-15.46
317.493	-0.46
317.625	-13.46
317.758	1.54
317.89	16.54
318.022	6.54
318.155	-24.46
318.287	7.54
318.419	-18.46
318.551	12.54
318.683	-3.46
318.816	-12.46
318.948	-2.46
319.08	-4.46
319.212	7.54
319.344	29.54
319.477	-6.46
319.609	32.54
319.741	14.54
319.873	2.54
320.005	-14.46
320.137	-10.46
320.269	3.54
320.401	14.54
320.534	-9.46
320.666	-23.46
320.798	-18.46
320.93	-8.46
321.062	-4.46
321.194	-5.46
321.326	-5.46
321.458	6.54
321.59	-1.46
321.722	-3.46
321.854	9.54
321.986	3.54
322.118	5.54
322.25	-17.46
322.382	1.54
322.514	-25.46
322.646	-11.46
322.778	-12.46
322.91	-9.46
323.042	-3.46
323.174	12.54
323.306	-9.46
323.438	-23.46
323.57	-13.46
323.702	11.54
323.834	-1.46
323.966	-6.46
324.097	13.54
324.229	11.54
324.361	8.54
324.493	15.54
324.625	-9.46
324.757	12.54
324.889	2.54
325.021	8.54
325.152	25.54
325.284	16.54
325.416	-2.46
325.548	11.54
325.68	-1.46
325.811	37.54
325.943	6.54
326.075	-15.46
326.207	0.54
326.339	-8.46
326.47	-4.46
326.602	11.54
326.734	12.54
326.866	22.54
326.997	-6.46
327.129	-11.46
327.261	-23.46
327.392	8.54
327.524	2.54
327.656	12.54
327.787	9.54
327.919	10.54
328.051	-2.46
328.182	15.54
328.314	29.54
328.446	-9.46
328.577	12.54
328.709	-1.46
328.841	-3.46
328.972	-1.46
329.104	-17.46
329.235	1.54
329.367	1.54
329.499	-22.46
329.63	10.54
329.762	17.54
329.893	23.54
330.025	-0.46
330.156	-14.46
330.288	28.54
330.419	23.54
330.551	13.54
330.683	12.54
330.814	-12.46
330.946	6.54
331.077	-12.46
331.208	-0.46
331.34	-12.46
331.471	-12.46
331.603	-11.46
331.734	-22.46
331.866	0.54
331.997	7.54
332.129	-13.46
332.26	6.54
332.392	13.54
332.523	-8.46
332.654	-16.46
332.786	-2.46
332.917	-4.46
333.048	3.54
333.18	19.54
333.311	-2.46
333.443	-8.46
333.574	5.54
333.705	35.54
333.837	0.54
333.968	4.54
334.099	20.54
334.231	2.54
334.362	-10.46
334.493	15.54
334.624	21.54
334.756	10.54
334.887	-4.46
335.018	-11.46
335.15	22.54
335.281	5.54
335.412	19.54
335.543	0.54
335.675	14.54
335.806	2.54
335.937	5.54
336.068	10.54
336.199	37.54
336.331	4.54
336.462	-8.46
336.593	19.54
336.724	16.54
336.855	-13.46
336.986	-6.46
337.118	4.54
337.249	-2.46
337.38	10.54
337.511	2.54
337.642	9.54
337.773	-4.46
337.904	5.54
338.035	20.54
338.166	11.54
338.298	11.54
338.429	4.54
338.56	14.54
338.691	19.54
338.822	9.54
338.953	14.54
339.084	14.54
339.215	14.54
339.346	-1.46
339.477	4.54
339.608	-3.46
339.739	7.54
339.87	6.54
340.001	-10.46
340.132	19.54
340.263	10.54
340.394	4.54
340.525	-0.46
340.656	4.54
340.787	-9.46
340.918	15.54
341.049	5.54
341.179	0.54
341.31	13.54
341.441	22.54
341.572	16.54
341.703	5.54
341.834	-1.46
341.965	10.54
342.096	4.54
342.227	22.54
342.357	6.54
342.488	18.54
342.619	6.54
342.75	9.54
342.881	-12.46
343.012	22.54
343.142	22.54
343.273	-3.46
343.404	13.54
343.535	41.54
343.666	31.54
343.796	7.54
343.927	5.54
344.058	28.54
344.189	13.54
344.319	-11.46
344.45	21.54
344.581	-2.46
344.712	-19.46
344.842	-13.46
344.973	-2.46
345.104	16.54
345.234	18.54
345.365	-9.46
345.496	2.54
345.626	11.54
345.757	5.54
345.888	-0.46
346.018	18.54
346.149	6.54
346.28	17.54
346.41	-5.46
346.541	24.54
346.672	-2.46
346.802	-7.46
346.933	-8.46
347.063	-7.46
347.194	-15.46
347.325	17.54
347.455	27.54
347.586	-5.46
347.716	-12.46
347.847	8.54
347.977	20.54
348.108	21.54
348.238	15.54
348.369	3.54
348.499	7.54
348.63	6.54
348.76	0.54
348.891	4.54
349.021	4.54
349.152	14.54
349.282	29.54
349.413	8.54
349.543	15.54
349.674	2.54
349.804	7.54
349.935	-3.46
350.065	4.54
350.196	3.54
350.326	0.54
350.456	9.54
350.587	11.54
350.717	-7.46
350.848	23.54
350.978	7.54
351.108	-0.46
351.239	4.54
351.369	-2.46
351.499	1.54
351.63	20.54
351.76	23.54
351.89	-7.46
352.021	6.54
352.151	1.54
352.281	5.54
352.412	4.54
352.542	12.54
352.672	-7.46
352.803	1.54
352.933	13.54
353.063	3.54
353.193	-3.46
353.324	-7.46
353.454	17.54
353.584	14.54
353.714	-13.46
353.845	7.54
353.975	5.54
354.105	4.54
354.235	7.54
354.365	10.54
354.496	-5.46
354.626	18.54
354.756	19.54
354.886	1.54
355.016	12.54
355.146	3.54
355.277	16.54
355.407	5.54
355.537	-1.46
355.667	0.54
355.797	-1.46
355.927	0.54
356.057	5.54
356.187	2.54
356.318	3.54
356.448	12.54
356.578	1.54
356.708	14.54
356.838	2.54
356.968	-6.46
357.098	-1.46
357.228	26.54
357.358	10.54
357.488	-9.46
357.618	22.54
357.748	26.54
357.878	6.54
358.008	16.54
358.138	-5.46
358.268	-0.46
358.398	28.54
358.528	-14.46
358.658	13.54
358.788	-2.46
358.918	3.54
359.048	11.54
359.178	9.54
359.308	-4.46
359.438	32.54
359.568	22.54
359.698	20.54
359.827	2.54
359.957	3.54
360.087	1.54
360.217	5.54
360.347	6.54
360.477	28.54
360.607	-19.46
360.737	15.54
360.866	3.54
360.996	-7.46
361.126	-7.46
361.256	22.54
361.386	18.54
361.516	36.54
361.645	5.54
361.775	-4.46
361.905	-11.46
362.035	5.54
362.165	5.54
362.294	0.54
362.424	7.54
362.554	2.54
362.684	-3.46
362.813	6.54
362.943	12.54
363.073	-7.46
363.203	-3.46
363.332	2.54
363.462	-15.46
363.592	-8.46
363.721	-4.46
363.851	3.54
363.981	23.54
364.111	4.54
364.24	0.54
364.37	13.54
364.5	26.54
364.629	20.54
364.759	-2.46
364.888	-27.46
365.018	15.54
365.148	5.54
365.277	8.54
365.407	-7.46
365.537	-5.46
365.666	-2.46
365.796	17.54
365.925	12.54
366.055	23.54
366.184	16.54
366.314	15.54
366.444	12.54
366.573	26.54
366.703	14.54
366.832	14.54
366.962	16.54
367.091	19.54
367.221	3.54
367.35	4.54
367.48	36.54
367.609	21.54
367.739	9.54
367.868	15.54
367.998	12.54
368.127	34.54
368.257	32.54
368.386	39.54
368.516	19.54
368.645	18.54
368.775	16.54
368.904	19.54
369.033	7.54
369.163	6.54
369.292	19.54
369.422	14.54
369.551	32.54
369.68	20.54
369.81	13.54
369.939	-1.46
370.069	29.54
370.198	21.54
370.327	0.54
370.457	21.54
370.586	9.54
370.715	9.54
370.845	5.54
370.974	27.54
371.103	19.54
371.233	16.54
371.362	7.54
371.491	-11.46
371.621	11.54
371.75	7.54
371.879	15.54
372.008	9.54
372.138	4.54
372.267	26.54
372.396	29.54
372.525	4.54
372.655	-5.46
372.784	14.54
372.913	0.54
373.042	11.54
373.172	23.54
373.301	-13.46
373.43	-23.46
373.559	-0.46
373.688	11.54
373.818	17.54
373.947	21.54
374.076	17.54
374.205	1.54
374.334	4.54
374.463	-12.46
374.593	1.54
374.722	10.54
374.851	1.54
374.98	-6.46
375.109	10.54
375.238	13.54
375.367	46.54
375.496	-0.46
375.625	-3.46
375.755	30.54
375.884	16.54
376.013	13.54
376.142	-1.46
376.271	-11.46
376.4	9.54
376.529	11.54
376.658	15.54
376.787	6.54
376.916	20.54
377.045	7.54
377.174	5.54
377.303	4.54
377.432	24.54
377.561	7.54
377.69	18.54
377.819	17.54
377.948	0.54
378.077	-4.46
378.206	2.54
378.335	-2.46
378.464	4.54
378.593	25.54
378.722	6.54
378.851	1.54
378.98	28.54
379.108	2.54
379.237	-10.46
379.366	-6.46
379.495	3.54
379.624	8.54
379.753	-4.46
379.882	22.54
380.011	-1.46
380.14	0.54
380.268	10.54
380.397	-5.46
380.526	44.54
380.655	-1.46
380.784	0.54
380.913	-3.46
381.041	5.54
381.17	-24.46
381.299	14.54
381.428	9.54
381.557	-1.46
381.685	14.54
381.814	27.54
381.943	1.54
382.072	-5.46
382.2	-6.46
382.329	19.54
382.458	15.54
382.587	28.54
382.715	25.54
382.844	21.54
382.973	-4.46
383.102	12.54
383.23	-4.46
383.359	9.54
383.488	-12.46
383.616	13.54
383.745	2.54
383.874	13.54
384.003	-6.46
384.131	0.54
384.26	-14.46
384.389	12.54
384.517	-12.46
384.646	-12.46
384.774	-1.46
384.903	14.54
385.032	-1.46
385.16	-5.46
385.289	-2.46
385.418	11.54
385.546	-22.46
385.675	7.54
385.803	-3.46
385.932	23.54
386.06	5.54
386.189	22.54
386.318	12.54
386.446	0.54
386.575	20.54
386.703	1.54
386.832	-0.46
386.96	-9.46
387.089	24.54
387.217	15.54
387.346	-15.46
387.474	-4.46
387.603	12.54
387.731	5.54
387.86	16.54
387.988	7.54
388.117	31.54
388.245	5.54
388.374	8.54
388.502	6.54
388.631	-5.46
388.759	-2.46
388.888	2.54
389.016	-4.46
389.144	7.54
389.273	8.54
389.401	8.54
389.53	-3.46
389.658	13.54
389.786	-6.46
389.915	-7.46
390.043	-7.46
390.172	12.54
390.3	27.54
390.428	9.54
390.557	-0.46
390.685	18.54
390.813	22.54
390.942	2.54
391.07	-13.46
391.198	-18.46
391.327	-3.46
391.455	-9.46
391.583	15.54
391.712	6.54
391.84	9.54
391.968	7.54
392.096	4.54
392.225	-8.46
392.353	17.54
392.481	-11.46
392.609	2.54
392.738	5.54
392.866	4.54
392.994	-17.46
393.122	27.54
393.251	-21.46
393.379	0.54
393.507	-8.46
393.635	-24.46
393.764	-1.46
393.892	19.54
394.02	5.54
394.148	-1.46
394.276	4.54
394.404	32.54
394.533	10.54
394.661	18.54
394.789	18.54
394.917	29.54
395.045	-4.46
395.173	0.54
395.302	-3.46
395.43	3.54
395.558	4.54
395.686	21.54
395.814	-7.46
395.942	3.54
396.07	2.54
396.198	20.54
396.326	25.54
396.454	23.54
396.582	32.54
396.711	-4.46
396.839	14.54
396.967	26.54
397.095	10.54
397.223	21.54
397.351	42.54
397.479	21.54
397.607	-0.46
397.735	16.54
397.863	28.54
397.991	26.54
398.119	2.54
398.247	1.54
398.375	-4.46
398.503	8.54
398.631	11.54
398.759	27.54
398.887	22.54
399.015	5.54
399.143	1.54
399.271	20.54
399.399	26.54
399.526	6.54
399.654	20.54
399.782	-1.46
399.91	26.54
400.038	32.54
400.166	0.54
400.294	11.54
400.422	-21.46
400.55	0.54
400.678	10.54
400.805	-9.46
400.933	-4.46
401.061	8.54
401.189	4.54
401.317	18.54
401.445	26.54
401.573	19.54
401.7	1.54
401.828	-5.46
401.956	6.54
402.084	24.54
402.212	7.54
402.34	21.54
402.467	15.54
402.595	26.54
402.723	16.54
402.851	22.54
402.978	17.54
403.106	19.54
403.234	16.54
403.362	19.54
403.489	26.54
403.617	13.54
403.745	0.54
403.873	-1.46
404	14.54
404.128	11.54
404.256	10.54
404.384	25.54
404.511	15.54
404.639	-8.46
404.767	-3.46
404.894	-0.46
405.022	22.54
405.15	9.54
405.277	3.54
405.405	-10.46
405.533	11.54
405.66	-4.46
405.788	-1.46
405.916	-9.46
406.043	-11.46
406.171	-17.46
406.299	9.54
406.426	5.54
406.554	17.54
406.681	24.54
406.809	8.54
406.937	11.54
407.064	-6.46
407.192	18.54
407.319	25.54
407.447	6.54
407.574	28.54
407.702	8.54
407.83	10.54
407.957	12.54
408.085	6.54
408.212	-0.46
408.34	9.54
408.467	1.54
408.595	-3.46
408.722	-5.46
408.85	23.54
408.977	-0.46
409.105	9.54
409.232	7.54
409.36	0.54
409.487	6.54
409.615	3.54
409.742	20.54
409.87	27.54
409.997	38.54
410.125	34.54
410.252	49.54
410.379	49.54
410.507	33.54
410.634	23.54
410.762	13.54
410.889	14.54
411.017	9.54
411.144	17.54
411.271	10.54
411.399	-5.46
411.526	1.54
411.653	19.54
411.781	29.54
411.908	22.54
412.036	11.54
412.163	9.54
412.29	25.54
412.418	-1.46
412.545	17.54
412.672	4.54
412.8	46.54
412.927	25.54
413.054	27.54
413.182	15.54
413.309	4.54
413.436	-24.46
413.564	2.54
413.691	5.54
413.818	38.54
413.945	3.54
414.073	-3.46
414.2	12.54
414.327	19.54
414.454	22.54
414.582	18.54
414.709	-11.46
414.836	-2.46
414.963	6.54
415.091	15.54
415.218	-3.46
415.345	3.54
415.472	0.54
415.6	-14.46
415.727	18.54
415.854	15.54
415.981	-4.46
416.108	3.54
416.236	11.54
416.363	14.54
416.49	18.54
416.617	10.54
416.744	19.54
416.871	13.54
416.998	4.54
417.126	6.54
417.253	2.54
417.38	22.54
417.507	5.54
417.634	28.54
417.761	17.54
417.888	20.54
418.015	7.54
418.143	7.54
418.27	33.54
418.397	17.54
418.524	5.54
418.651	12.54
418.778	1.54
418.905	36.54
419.032	21.54
419.159	-0.46
419.286	37.54
419.413	18.54
419.54	9.54
419.667	3.54
419.794	-3.46
419.921	3.54
420.048	1.54
420.175	22.54
420.302	7.54
420.429	14.54
420.556	-3.46
