Data from LowRes_H2_15_26_11_07_2024_HR4C61881__40__15-28-17-637.txt Node

Date: Thu Nov 07 15:28:17 EST 2024
User: crc00042
Spectrometer: HR4C6188
Trigger mode: 4
Integration Time (sec): 1.000000E-1
Scans to average: 1
Electric dark correction enabled: true
Nonlinearity correction enabled: false
Boxcar width: 0
XAxis mode: Wavelengths
Number of Pixels in Spectrum: 3648
>>>>>Begin Spectral Data<<<<<
245.66	-111.15
245.797	-111.15
245.934	-111.15
246.071	-78.15
246.208	14.85
246.344	-13.15
246.481	-2.15
246.618	-2.15
246.755	24.85
246.892	2.85
247.029	2.85
247.165	-28.15
247.302	-11.15
247.439	13.85
247.576	13.85
247.713	-4.15
247.849	9.85
247.986	-7.15
248.123	-18.15
248.26	-0.15
248.396	10.85
248.533	7.85
248.67	1.85
248.806	19.85
248.943	-3.15
249.08	-6.15
249.216	9.85
249.353	-16.15
249.49	4.85
249.626	-5.15
249.763	5.85
249.9	-15.15
250.036	-10.15
250.173	10.85
250.309	7.85
250.446	10.85
250.582	-9.15
250.719	9.85
250.856	-12.15
250.992	15.85
251.129	7.85
251.265	-7.15
251.402	-12.15
251.538	-3.15
251.675	-1.15
251.811	24.85
251.948	24.85
252.084	9.85
252.221	0.85
252.357	-2.15
252.493	33.85
252.63	-0.15
252.766	21.85
252.903	12.85
253.039	4.85
253.175	9.85
253.312	24.85
253.448	-11.15
253.585	-4.15
253.721	19.85
253.857	5.85
253.994	13.85
254.13	2.85
254.266	0.85
254.403	3.85
254.539	-5.15
254.675	15.85
254.811	-8.15
254.948	23.85
255.084	-4.15
255.22	-16.15
255.356	2.85
255.493	13.85
255.629	16.85
255.765	-10.15
255.901	28.85
256.037	11.85
256.174	14.85
256.31	2.85
256.446	-7.15
256.582	-14.15
256.718	8.85
256.854	5.85
256.991	17.85
257.127	5.85
257.263	2.85
257.399	-0.15
257.535	-11.15
257.671	-17.15
257.807	-25.15
257.943	-8.15
258.079	-9.15
258.215	-4.15
258.351	-1.15
258.487	-15.15
258.623	12.85
258.759	-9.15
258.895	-28.15
259.031	-11.15
259.167	-14.15
259.303	1.85
259.439	-2.15
259.575	-8.15
259.711	-4.15
259.847	-7.15
259.983	5.85
260.119	-5.15
260.255	-6.15
260.391	6.85
260.527	-8.15
260.663	8.85
260.799	10.85
260.934	-3.15
261.07	2.85
261.206	-20.15
261.342	4.85
261.478	12.85
261.614	9.85
261.749	-3.15
261.885	-11.15
262.021	-11.15
262.157	14.85
262.293	-6.15
262.428	-12.15
262.564	5.85
262.7	3.85
262.836	3.85
262.971	16.85
263.107	-15.15
263.243	14.85
263.378	3.85
263.514	-1.15
263.65	-4.15
263.785	-3.15
263.921	-7.15
264.057	1.85
264.192	1.85
264.328	18.85
264.464	1.85
264.599	3.85
264.735	14.85
264.871	-6.15
265.006	21.85
265.142	-17.15
265.277	1.85
265.413	21.85
265.548	33.85
265.684	26.85
265.819	-0.15
265.955	-1.15
266.091	-7.15
266.226	1.85
266.362	5.85
266.497	11.85
266.633	8.85
266.768	7.85
266.903	12.85
267.039	5.85
267.174	15.85
267.31	-8.15
267.445	-14.15
267.581	-10.15
267.716	25.85
267.851	6.85
267.987	0.85
268.122	4.85
268.258	-3.15
268.393	-12.15
268.528	-2.15
268.664	-11.15
268.799	-1.15
268.934	-2.15
269.07	9.85
269.205	3.85
269.34	11.85
269.476	4.85
269.611	-4.15
269.746	34.85
269.881	-0.15
270.017	13.85
270.152	5.85
270.287	23.85
270.422	12.85
270.558	-8.15
270.693	14.85
270.828	-15.15
270.963	2.85
271.098	9.85
271.234	4.85
271.369	16.85
271.504	7.85
271.639	-29.15
271.774	-3.15
271.909	6.85
272.045	-20.15
272.18	-11.15
272.315	-4.15
272.45	10.85
272.585	-17.15
272.72	-10.15
272.855	-6.15
272.99	26.85
273.125	-6.15
273.26	-6.15
273.395	-13.15
273.53	-3.15
273.665	6.85
273.8	-7.15
273.935	2.85
274.07	-2.15
274.205	16.85
274.34	-10.15
274.475	-9.15
274.61	17.85
274.745	-9.15
274.88	21.85
275.015	3.85
275.15	3.85
275.285	-3.15
275.42	8.85
275.555	11.85
275.69	9.85
275.825	-0.15
275.959	20.85
276.094	5.85
276.229	-2.15
276.364	-7.15
276.499	4.85
276.634	0.85
276.768	-4.15
276.903	0.85
277.038	29.85
277.173	11.85
277.308	8.85
277.442	-13.15
277.577	-13.15
277.712	-5.15
277.847	-5.15
277.981	20.85
278.116	-21.15
278.251	-6.15
278.386	5.85
278.52	16.85
278.655	-6.15
278.79	9.85
278.924	-4.15
279.059	-1.15
279.194	4.85
279.328	26.85
279.463	7.85
279.598	14.85
279.732	11.85
279.867	15.85
280.001	21.85
280.136	12.85
280.271	7.85
280.405	-6.15
280.54	4.85
280.674	-19.15
280.809	15.85
280.943	14.85
281.078	17.85
281.213	30.85
281.347	3.85
281.482	22.85
281.616	-13.15
281.751	-15.15
281.885	-21.15
282.02	-14.15
282.154	9.85
282.288	-13.15
282.423	-8.15
282.557	-2.15
282.692	25.85
282.826	4.85
282.961	10.85
283.095	3.85
283.229	21.85
283.364	-4.15
283.498	-11.15
283.633	-3.15
283.767	15.85
283.901	-6.15
284.036	-2.15
284.17	-20.15
284.304	-11.15
284.439	-2.15
284.573	-0.15
284.707	2.85
284.842	3.85
284.976	3.85
285.11	-4.15
285.244	0.85
285.379	46.85
285.513	-14.15
285.647	30.85
285.781	-9.15
285.916	11.85
286.05	8.85
286.184	30.85
286.318	22.85
286.453	1.85
286.587	-18.15
286.721	-11.15
286.855	6.85
286.989	22.85
287.123	2.85
287.258	-2.15
287.392	13.85
287.526	10.85
287.66	3.85
287.794	-0.15
287.928	-6.15
288.062	-0.15
288.196	3.85
288.33	21.85
288.464	16.85
288.598	21.85
288.733	10.85
288.867	15.85
289.001	0.85
289.135	8.85
289.269	-3.15
289.403	1.85
289.537	-12.15
289.671	19.85
289.805	-4.15
289.939	2.85
290.073	-5.15
290.207	12.85
290.34	-2.15
290.474	15.85
290.608	-0.15
290.742	3.85
290.876	-8.15
291.01	-6.15
291.144	14.85
291.278	11.85
291.412	17.85
291.546	17.85
291.679	6.85
291.813	6.85
291.947	23.85
292.081	7.85
292.215	1.85
292.349	9.85
292.482	7.85
292.616	-18.15
292.75	0.85
292.884	-3.15
293.018	-3.15
293.151	-18.15
293.285	-6.15
293.419	-3.15
293.553	-9.15
293.686	-11.15
293.82	7.85
293.954	6.85
294.088	19.85
294.221	3.85
294.355	4.85
294.489	8.85
294.622	-8.15
294.756	8.85
294.89	-8.15
295.023	-3.15
295.157	9.85
295.291	9.85
295.424	12.85
295.558	-5.15
295.691	17.85
295.825	-11.15
295.959	-0.15
296.092	-7.15
296.226	5.85
296.359	12.85
296.493	8.85
296.627	15.85
296.76	9.85
296.894	-1.15
297.027	6.85
297.161	1.85
297.294	-17.15
297.428	15.85
297.561	36.85
297.695	-18.15
297.828	-1.15
297.962	-0.15
298.095	7.85
298.229	4.85
298.362	-7.15
298.495	-8.15
298.629	-15.15
298.762	-7.15
298.896	-4.15
299.029	-12.15
299.162	-2.15
299.296	-3.15
299.429	-13.15
299.563	-3.15
299.696	-15.15
299.829	9.85
299.963	22.85
300.096	7.85
300.229	8.85
300.363	2.85
300.496	11.85
300.629	-2.15
300.763	-11.15
300.896	18.85
301.029	9.85
301.162	8.85
301.296	-14.15
301.429	-2.15
301.562	-20.15
301.695	22.85
301.829	3.85
301.962	20.85
302.095	13.85
302.228	0.85
302.362	-9.15
302.495	-21.15
302.628	7.85
302.761	-5.15
302.894	-5.15
303.027	17.85
303.161	-2.15
303.294	-13.15
303.427	16.85
303.56	7.85
303.693	-3.15
303.826	13.85
303.959	-3.15
304.092	6.85
304.225	-4.15
304.359	4.85
304.492	-6.15
304.625	15.85
304.758	21.85
304.891	-8.15
305.024	-10.15
305.157	5.85
305.29	-7.15
305.423	-12.15
305.556	5.85
305.689	38.85
305.822	5.85
305.955	4.85
306.088	-16.15
306.221	12.85
306.354	-14.15
306.487	-17.15
306.62	-21.15
306.752	-10.15
306.885	3.85
307.018	-6.15
307.151	2.85
307.284	13.85
307.417	-2.15
307.55	13.85
307.683	2.85
307.816	5.85
307.948	-3.15
308.081	12.85
308.214	-6.15
308.347	42.85
308.48	-1.15
308.613	-5.15
308.745	7.85
308.878	-14.15
309.011	-20.15
309.144	22.85
309.277	-2.15
309.409	9.85
309.542	8.85
309.675	6.85
309.808	4.85
309.94	30.85
310.073	-17.15
310.206	-12.15
310.339	12.85
310.471	-2.15
310.604	22.85
310.737	-8.15
310.869	2.85
311.002	-5.15
311.135	6.85
311.267	-7.15
311.4	-2.15
311.533	15.85
311.665	-3.15
311.798	1.85
311.93	-1.15
312.063	11.85
312.196	11.85
312.328	-3.15
312.461	-10.15
312.593	9.85
312.726	0.85
312.859	5.85
312.991	0.85
313.124	-22.15
313.256	12.85
313.389	4.85
313.521	-1.15
313.654	-11.15
313.786	-20.15
313.919	-6.15
314.051	9.85
314.184	17.85
314.316	1.85
314.449	1.85
314.581	12.85
314.714	-14.15
314.846	9.85
314.978	-7.15
315.111	1.85
315.243	2.85
315.376	4.85
315.508	-2.15
315.641	3.85
315.773	27.85
315.905	-4.15
316.038	9.85
316.17	6.85
316.302	4.85
316.435	2.85
316.567	-3.15
316.699	23.85
316.832	5.85
316.964	-16.15
317.096	4.85
317.229	-3.15
317.361	-14.15
317.493	-2.15
317.625	-15.15
317.758	11.85
317.89	21.85
318.022	6.85
318.155	-1.15
318.287	13.85
318.419	-6.15
318.551	6.85
318.683	-21.15
318.816	-26.15
318.948	-11.15
319.08	-7.15
319.212	8.85
319.344	9.85
319.477	20.85
319.609	10.85
319.741	4.85
319.873	-0.15
320.005	0.85
320.137	12.85
320.269	8.85
320.401	-10.15
320.534	-2.15
320.666	-25.15
320.798	-20.15
320.93	3.85
321.062	-19.15
321.194	-9.15
321.326	-1.15
321.458	-18.15
321.59	-23.15
321.722	-1.15
321.854	13.85
321.986	11.85
322.118	13.85
322.25	-9.15
322.382	-14.15
322.514	-14.15
322.646	-17.15
322.778	21.85
322.91	17.85
323.042	-1.15
323.174	0.85
323.306	-12.15
323.438	-15.15
323.57	4.85
323.702	13.85
323.834	-6.15
323.966	-6.15
324.097	7.85
324.229	9.85
324.361	-0.15
324.493	4.85
324.625	-6.15
324.757	17.85
324.889	8.85
325.021	-5.15
325.152	4.85
325.284	18.85
325.416	-9.15
325.548	4.85
325.68	-4.15
325.811	31.85
325.943	11.85
326.075	-19.15
326.207	3.85
326.339	25.85
326.47	11.85
326.602	16.85
326.734	5.85
326.866	5.85
326.997	-12.15
327.129	-10.15
327.261	-27.15
327.392	-1.15
327.524	2.85
327.656	5.85
327.787	20.85
327.919	11.85
328.051	8.85
328.182	26.85
328.314	23.85
328.446	8.85
328.577	11.85
328.709	1.85
328.841	-7.15
328.972	2.85
329.104	-6.15
329.235	3.85
329.367	-17.15
329.499	2.85
329.63	11.85
329.762	2.85
329.893	3.85
330.025	10.85
330.156	-23.15
330.288	25.85
330.419	22.85
330.551	10.85
330.683	-0.15
330.814	-12.15
330.946	11.85
331.077	-13.15
331.208	-7.15
331.34	-2.15
331.471	-13.15
331.603	3.85
331.734	-26.15
331.866	2.85
331.997	-1.15
332.129	-6.15
332.26	11.85
332.392	5.85
332.523	-8.15
332.654	-1.15
332.786	-2.15
332.917	-19.15
333.048	10.85
333.18	24.85
333.311	-7.15
333.443	4.85
333.574	-9.15
333.705	-5.15
333.837	-16.15
333.968	2.85
334.099	21.85
334.231	10.85
334.362	-2.15
334.493	3.85
334.624	0.85
334.756	-10.15
334.887	-0.15
335.018	15.85
335.15	8.85
335.281	10.85
335.412	30.85
335.543	2.85
335.675	-0.15
335.806	15.85
335.937	7.85
336.068	16.85
336.199	24.85
336.331	-3.15
336.462	3.85
336.593	18.85
336.724	0.85
336.855	5.85
336.986	14.85
337.118	20.85
337.249	25.85
337.38	24.85
337.511	2.85
337.642	5.85
337.773	-4.15
337.904	11.85
338.035	10.85
338.166	13.85
338.298	18.85
338.429	0.85
338.56	11.85
338.691	24.85
338.822	7.85
338.953	4.85
339.084	21.85
339.215	20.85
339.346	4.85
339.477	17.85
339.608	-3.15
339.739	-3.15
339.87	-0.15
340.001	2.85
340.132	24.85
340.263	0.85
340.394	7.85
340.525	7.85
340.656	0.85
340.787	-19.15
340.918	13.85
341.049	16.85
341.179	10.85
341.31	14.85
341.441	3.85
341.572	2.85
341.703	10.85
341.834	-1.15
341.965	15.85
342.096	-2.15
342.227	12.85
342.357	9.85
342.488	-16.15
342.619	20.85
342.75	8.85
342.881	-20.15
343.012	16.85
343.142	28.85
343.273	-28.15
343.404	3.85
343.535	47.85
343.666	8.85
343.796	12.85
343.927	11.85
344.058	25.85
344.189	23.85
344.319	10.85
344.45	0.85
344.581	-9.15
344.712	-8.15
344.842	-7.15
344.973	-5.15
345.104	20.85
345.234	-0.15
345.365	-31.15
345.496	1.85
345.626	10.85
345.757	3.85
345.888	-6.15
346.018	18.85
346.149	1.85
346.28	23.85
346.41	-2.15
346.541	23.85
346.672	11.85
346.802	8.85
346.933	35.85
347.063	8.85
347.194	-11.15
347.325	-5.15
347.455	22.85
347.586	4.85
347.716	-11.15
347.847	28.85
347.977	8.85
348.108	17.85
348.238	28.85
348.369	9.85
348.499	28.85
348.63	12.85
348.76	11.85
348.891	12.85
349.021	23.85
349.152	1.85
349.282	9.85
349.413	-14.15
349.543	4.85
349.674	10.85
349.804	28.85
349.935	8.85
350.065	2.85
350.196	13.85
350.326	15.85
350.456	-2.15
350.587	26.85
350.717	5.85
350.848	2.85
350.978	18.85
351.108	-13.15
351.239	23.85
351.369	-13.15
351.499	4.85
351.63	13.85
351.76	14.85
351.89	14.85
352.021	3.85
352.151	6.85
352.281	10.85
352.412	7.85
352.542	14.85
352.672	15.85
352.803	7.85
352.933	5.85
353.063	14.85
353.193	19.85
353.324	3.85
353.454	18.85
353.584	30.85
353.714	0.85
353.845	8.85
353.975	7.85
354.105	-1.15
354.235	3.85
354.365	10.85
354.496	-3.15
354.626	14.85
354.756	5.85
354.886	8.85
355.016	13.85
355.146	-2.15
355.277	1.85
355.407	-5.15
355.537	10.85
355.667	7.85
355.797	7.85
355.927	7.85
356.057	-6.15
356.187	4.85
356.318	8.85
356.448	22.85
356.578	12.85
356.708	17.85
356.838	-6.15
356.968	-9.15
357.098	8.85
357.228	29.85
357.358	-7.15
357.488	2.85
357.618	32.85
357.748	1.85
357.878	10.85
358.008	6.85
358.138	3.85
358.268	4.85
358.398	25.85
358.528	-5.15
358.658	11.85
358.788	-1.15
358.918	24.85
359.048	6.85
359.178	15.85
359.308	11.85
359.438	9.85
359.568	0.85
359.698	-5.15
359.827	9.85
359.957	31.85
360.087	7.85
360.217	4.85
360.347	6.85
360.477	26.85
360.607	-0.15
360.737	12.85
360.866	-10.15
360.996	-10.15
361.126	-2.15
361.256	14.85
361.386	12.85
361.516	27.85
361.645	2.85
361.775	14.85
361.905	-9.15
362.035	-2.15
362.165	1.85
362.294	10.85
362.424	22.85
362.554	17.85
362.684	-5.15
362.813	5.85
362.943	30.85
363.073	13.85
363.203	8.85
363.332	8.85
363.462	-3.15
363.592	-2.15
363.721	-11.15
363.851	6.85
363.981	31.85
364.111	-4.15
364.24	-4.15
364.37	24.85
364.5	27.85
364.629	9.85
364.759	5.85
364.888	-17.15
365.018	6.85
365.148	10.85
365.277	15.85
365.407	19.85
365.537	3.85
365.666	1.85
365.796	13.85
365.925	5.85
366.055	13.85
366.184	11.85
366.314	8.85
366.444	20.85
366.573	-11.15
366.703	5.85
366.832	22.85
366.962	-2.15
367.091	17.85
367.221	23.85
367.35	18.85
367.48	67.85
367.609	8.85
367.739	-5.15
367.868	-14.15
367.998	23.85
368.127	20.85
368.257	18.85
368.386	27.85
368.516	17.85
368.645	-5.15
368.775	18.85
368.904	-3.15
369.033	-3.15
369.163	-17.15
369.292	17.85
369.422	28.85
369.551	25.85
369.68	7.85
369.81	11.85
369.939	-8.15
370.069	27.85
370.198	18.85
370.327	-18.15
370.457	1.85
370.586	-1.15
370.715	0.85
370.845	-7.15
370.974	14.85
371.103	17.85
371.233	8.85
371.362	11.85
371.491	-15.15
371.621	-4.15
371.75	12.85
371.879	-23.15
372.008	-5.15
372.138	10.85
372.267	9.85
372.396	12.85
372.525	-10.15
372.655	-0.15
372.784	3.85
372.913	4.85
373.042	13.85
373.172	15.85
373.301	-14.15
373.43	-8.15
373.559	20.85
373.688	3.85
373.818	11.85
373.947	32.85
374.076	11.85
374.205	-16.15
374.334	-10.15
374.463	-2.15
374.593	29.85
374.722	3.85
374.851	35.85
374.98	11.85
375.109	6.85
375.238	13.85
375.367	32.85
375.496	-17.15
375.625	11.85
375.755	15.85
375.884	25.85
376.013	5.85
376.142	-1.15
376.271	-6.15
376.4	10.85
376.529	19.85
376.658	15.85
376.787	3.85
376.916	14.85
377.045	-1.15
377.174	-1.15
377.303	9.85
377.432	42.85
377.561	31.85
377.69	13.85
377.819	11.85
377.948	0.85
378.077	6.85
378.206	-2.15
378.335	0.85
378.464	18.85
378.593	13.85
378.722	2.85
378.851	6.85
378.98	25.85
379.108	16.85
379.237	-0.15
379.366	-6.15
379.495	10.85
379.624	-1.15
379.753	-1.15
379.882	0.85
380.011	1.85
380.14	8.85
380.268	9.85
380.397	-1.15
380.526	32.85
380.655	8.85
380.784	-27.15
380.913	5.85
381.041	8.85
381.17	-10.15
381.299	-7.15
381.428	14.85
381.557	19.85
381.685	0.85
381.814	15.85
381.943	-3.15
382.072	-8.15
382.2	-11.15
382.329	0.85
382.458	4.85
382.587	15.85
382.715	36.85
382.844	34.85
382.973	7.85
383.102	10.85
383.23	15.85
383.359	1.85
383.488	9.85
383.616	-1.15
383.745	-10.15
383.874	13.85
384.003	2.85
384.131	-2.15
384.26	-3.15
384.389	4.85
384.517	-19.15
384.646	-6.15
384.774	-4.15
384.903	12.85
385.032	14.85
385.16	1.85
385.289	4.85
385.418	3.85
385.546	-3.15
385.675	14.85
385.803	-4.15
385.932	8.85
386.06	5.85
386.189	12.85
386.318	4.85
386.446	-2.15
386.575	7.85
386.703	19.85
386.832	-17.15
386.96	-25.15
387.089	6.85
387.217	9.85
387.346	2.85
387.474	33.85
387.603	14.85
387.731	21.85
387.86	21.85
387.988	16.85
388.117	7.85
388.245	6.85
388.374	-0.15
388.502	10.85
388.631	-10.15
388.759	-9.15
388.888	3.85
389.016	1.85
389.144	1.85
389.273	22.85
389.401	-9.15
389.53	-19.15
389.658	10.85
389.786	-9.15
389.915	-3.15
390.043	1.85
390.172	21.85
390.3	28.85
390.428	6.85
390.557	1.85
390.685	22.85
390.813	0.85
390.942	-1.15
391.07	7.85
391.198	-3.15
391.327	7.85
391.455	-12.15
391.583	1.85
391.712	19.85
391.84	7.85
391.968	-13.15
392.096	1.85
392.225	0.85
392.353	22.85
392.481	0.85
392.609	16.85
392.738	-2.15
392.866	19.85
392.994	7.85
393.122	3.85
393.251	-16.15
393.379	-11.15
393.507	-22.15
393.635	-1.15
393.764	-14.15
393.892	28.85
394.02	0.85
394.148	5.85
394.276	4.85
394.404	30.85
394.533	14.85
394.661	7.85
394.789	14.85
394.917	15.85
395.045	-3.15
395.173	-0.15
395.302	-0.15
395.43	7.85
395.558	24.85
395.686	12.85
395.814	12.85
395.942	21.85
396.07	18.85
396.198	11.85
396.326	14.85
396.454	6.85
396.582	31.85
396.711	5.85
396.839	18.85
396.967	3.85
397.095	1.85
397.223	5.85
397.351	22.85
397.479	37.85
397.607	-5.15
397.735	22.85
397.863	4.85
397.991	11.85
398.119	7.85
398.247	9.85
398.375	-5.15
398.503	2.85
398.631	11.85
398.759	3.85
398.887	2.85
399.015	6.85
399.143	-4.15
399.271	-2.15
399.399	1.85
399.526	4.85
399.654	10.85
399.782	-15.15
399.91	24.85
400.038	23.85
400.166	-2.15
400.294	10.85
400.422	-8.15
400.55	11.85
400.678	18.85
400.805	4.85
400.933	7.85
401.061	11.85
401.189	-8.15
401.317	13.85
401.445	5.85
401.573	22.85
401.7	2.85
401.828	3.85
401.956	-8.15
402.084	8.85
402.212	25.85
402.34	7.85
402.467	2.85
402.595	24.85
402.723	5.85
402.851	26.85
402.978	23.85
403.106	30.85
403.234	21.85
403.362	29.85
403.489	41.85
403.617	14.85
403.745	16.85
403.873	-4.15
404	9.85
404.128	13.85
404.256	24.85
404.384	26.85
404.511	28.85
404.639	-4.15
404.767	-0.15
404.894	1.85
405.022	4.85
405.15	12.85
405.277	23.85
405.405	-4.15
405.533	-4.15
405.66	3.85
405.788	-16.15
405.916	-2.15
406.043	-4.15
406.171	-3.15
406.299	25.85
406.426	15.85
406.554	12.85
406.681	-2.15
406.809	-1.15
406.937	10.85
407.064	-8.15
407.192	20.85
407.319	11.85
407.447	7.85
407.574	39.85
407.702	23.85
407.83	3.85
407.957	-0.15
408.085	15.85
408.212	16.85
408.34	6.85
408.467	5.85
408.595	14.85
408.722	33.85
408.85	11.85
408.977	-0.15
409.105	-1.15
409.232	6.85
409.36	3.85
409.487	4.85
409.615	12.85
409.742	26.85
409.87	45.85
409.997	39.85
410.125	51.85
410.252	70.85
410.379	44.85
410.507	26.85
410.634	27.85
410.762	13.85
410.889	13.85
411.017	15.85
411.144	21.85
411.271	-1.15
411.399	1.85
411.526	2.85
411.653	14.85
411.781	32.85
411.908	15.85
412.036	11.85
412.163	5.85
412.29	12.85
412.418	26.85
412.545	35.85
412.672	-3.15
412.8	36.85
412.927	24.85
413.054	27.85
413.182	15.85
413.309	7.85
413.436	3.85
413.564	-1.15
413.691	11.85
413.818	25.85
413.945	-2.15
414.073	10.85
414.2	3.85
414.327	7.85
414.454	17.85
414.582	24.85
414.709	-6.15
414.836	1.85
414.963	11.85
415.091	11.85
415.218	-5.15
415.345	13.85
415.472	14.85
415.6	6.85
415.727	21.85
415.854	0.85
415.981	17.85
416.108	6.85
416.236	-3.15
416.363	18.85
416.49	9.85
416.617	-9.15
416.744	33.85
416.871	17.85
416.998	5.85
417.126	14.85
417.253	-2.15
417.38	4.85
417.507	4.85
417.634	12.85
417.761	26.85
417.888	4.85
418.015	9.85
418.143	20.85
418.27	21.85
418.397	7.85
418.524	7.85
418.651	1.85
418.778	7.85
418.905	22.85
419.032	15.85
419.159	13.85
419.286	25.85
419.413	27.85
419.54	34.85
419.667	-18.15
419.794	-14.15
419.921	26.85
420.048	21.85
420.175	26.85
420.302	17.85
420.429	7.85
420.556	14.85
