Data from LowRes_H2_15_26_11_07_2024_HR4C61881__29__15-28-16-537.txt Node

Date: Thu Nov 07 15:28:16 EST 2024
User: crc00042
Spectrometer: HR4C6188
Trigger mode: 4
Integration Time (sec): 1.000000E-1
Scans to average: 1
Electric dark correction enabled: true
Nonlinearity correction enabled: false
Boxcar width: 0
XAxis mode: Wavelengths
Number of Pixels in Spectrum: 3648
>>>>>Begin Spectral Data<<<<<
245.66	-112.62
245.797	-112.62
245.934	-112.62
246.071	-87.62
246.208	16.38
246.344	14.38
246.481	-13.62
246.618	-11.62
246.755	-0.62
246.892	-12.62
247.029	-15.62
247.165	-7.62
247.302	6.38
247.439	8.38
247.576	4.38
247.713	7.38
247.849	29.38
247.986	-8.62
248.123	-9.62
248.26	-10.62
248.396	15.38
248.533	12.38
248.67	-20.62
248.806	-6.62
248.943	-26.62
249.08	-7.62
249.216	12.38
249.353	-16.62
249.49	-6.62
249.626	-13.62
249.763	-3.62
249.9	-5.62
250.036	4.38
250.173	-0.62
250.309	-10.62
250.446	1.38
250.582	1.38
250.719	1.38
250.856	-10.62
250.992	-18.62
251.129	-2.62
251.265	-21.62
251.402	-6.62
251.538	-8.62
251.675	-11.62
251.811	11.38
251.948	12.38
252.084	2.38
252.221	-7.62
252.357	-3.62
252.493	18.38
252.63	-7.62
252.766	24.38
252.903	7.38
253.039	-1.62
253.175	-15.62
253.312	-8.62
253.448	-21.62
253.585	-19.62
253.721	8.38
253.857	5.38
253.994	14.38
254.13	-22.62
254.266	8.38
254.403	3.38
254.539	-10.62
254.675	7.38
254.811	3.38
254.948	-3.62
255.084	-3.62
255.22	-7.62
255.356	19.38
255.493	16.38
255.629	15.38
255.765	-1.62
255.901	2.38
256.037	-12.62
256.174	-8.62
256.31	-17.62
256.446	-9.62
256.582	14.38
256.718	17.38
256.854	12.38
256.991	20.38
257.127	3.38
257.263	-13.62
257.399	1.38
257.535	-15.62
257.671	-9.62
257.807	-10.62
257.943	-21.62
258.079	-16.62
258.215	-2.62
258.351	16.38
258.487	-13.62
258.623	23.38
258.759	2.38
258.895	-14.62
259.031	-21.62
259.167	-12.62
259.303	14.38
259.439	11.38
259.575	-13.62
259.711	-29.62
259.847	-18.62
259.983	16.38
260.119	-5.62
260.255	-5.62
260.391	-20.62
260.527	0.38
260.663	7.38
260.799	4.38
260.934	-9.62
261.07	-11.62
261.206	-13.62
261.342	-12.62
261.478	13.38
261.614	6.38
261.749	-13.62
261.885	-12.62
262.021	-0.62
262.157	14.38
262.293	-3.62
262.428	-10.62
262.564	-4.62
262.7	9.38
262.836	-2.62
262.971	-7.62
263.107	-4.62
263.243	11.38
263.378	13.38
263.514	-20.62
263.65	-21.62
263.785	-9.62
263.921	-16.62
264.057	11.38
264.192	14.38
264.328	12.38
264.464	-9.62
264.599	-9.62
264.735	-0.62
264.871	3.38
265.006	-9.62
265.142	14.38
265.277	11.38
265.413	12.38
265.548	6.38
265.684	6.38
265.819	8.38
265.955	-11.62
266.091	-22.62
266.226	-9.62
266.362	6.38
266.497	7.38
266.633	-2.62
266.768	-6.62
266.903	19.38
267.039	8.38
267.174	16.38
267.31	-17.62
267.445	6.38
267.581	-5.62
267.716	5.38
267.851	-2.62
267.987	-2.62
268.122	6.38
268.258	-12.62
268.393	-9.62
268.528	20.38
268.664	-6.62
268.799	-22.62
268.934	-16.62
269.07	-2.62
269.205	16.38
269.34	20.38
269.476	-3.62
269.611	-9.62
269.746	1.38
269.881	-0.62
270.017	8.38
270.152	-8.62
270.287	6.38
270.422	17.38
270.558	5.38
270.693	22.38
270.828	-0.62
270.963	-7.62
271.098	-17.62
271.234	-14.62
271.369	-10.62
271.504	3.38
271.639	-12.62
271.774	1.38
271.909	-10.62
272.045	-28.62
272.18	2.38
272.315	-19.62
272.45	-1.62
272.585	-13.62
272.72	4.38
272.855	17.38
272.99	15.38
273.125	-7.62
273.26	-13.62
273.395	-18.62
273.53	-8.62
273.665	5.38
273.8	-5.62
273.935	22.38
274.07	0.38
274.205	7.38
274.34	9.38
274.475	-9.62
274.61	7.38
274.745	-4.62
274.88	16.38
275.015	-0.62
275.15	20.38
275.285	5.38
275.42	-15.62
275.555	12.38
275.69	11.38
275.825	-12.62
275.959	8.38
276.094	-12.62
276.229	-8.62
276.364	-3.62
276.499	-25.62
276.634	-11.62
276.768	2.38
276.903	0.38
277.038	16.38
277.173	2.38
277.308	4.38
277.442	10.38
277.577	1.38
277.712	4.38
277.847	-11.62
277.981	7.38
278.116	-11.62
278.251	-9.62
278.386	4.38
278.52	13.38
278.655	-0.62
278.79	7.38
278.924	-2.62
279.059	18.38
279.194	-17.62
279.328	22.38
279.463	0.38
279.598	16.38
279.732	12.38
279.867	13.38
280.001	3.38
280.136	-10.62
280.271	-8.62
280.405	27.38
280.54	-0.62
280.674	-5.62
280.809	24.38
280.943	-4.62
281.078	-10.62
281.213	17.38
281.347	3.38
281.482	11.38
281.616	9.38
281.751	-2.62
281.885	-22.62
282.02	5.38
282.154	13.38
282.288	-9.62
282.423	-1.62
282.557	-13.62
282.692	14.38
282.826	-5.62
282.961	2.38
283.095	-19.62
283.229	-2.62
283.364	-17.62
283.498	-9.62
283.633	-2.62
283.767	6.38
283.901	9.38
284.036	-1.62
284.17	-14.62
284.304	-5.62
284.439	11.38
284.573	-15.62
284.707	13.38
284.842	-9.62
284.976	-9.62
285.11	-25.62
285.244	-3.62
285.379	46.38
285.513	-11.62
285.647	-2.62
285.781	-4.62
285.916	20.38
286.05	-2.62
286.184	26.38
286.318	9.38
286.453	-26.62
286.587	-38.62
286.721	-4.62
286.855	18.38
286.989	20.38
287.123	7.38
287.258	-11.62
287.392	-11.62
287.526	9.38
287.66	-12.62
287.794	2.38
287.928	-3.62
288.062	17.38
288.196	-3.62
288.33	17.38
288.464	23.38
288.598	10.38
288.733	6.38
288.867	18.38
289.001	-7.62
289.135	-3.62
289.269	-24.62
289.403	-8.62
289.537	3.38
289.671	5.38
289.805	-19.62
289.939	-9.62
290.073	9.38
290.207	8.38
290.34	-20.62
290.474	15.38
290.608	19.38
290.742	-2.62
290.876	5.38
291.01	0.38
291.144	25.38
291.278	3.38
291.412	-1.62
291.546	-5.62
291.679	-9.62
291.813	-15.62
291.947	-0.62
292.081	-22.62
292.215	1.38
292.349	14.38
292.482	0.38
292.616	-7.62
292.75	-0.62
292.884	5.38
293.018	-3.62
293.151	-29.62
293.285	4.38
293.419	-3.62
293.553	-8.62
293.686	-27.62
293.82	4.38
293.954	20.38
294.088	24.38
294.221	1.38
294.355	-9.62
294.489	-9.62
294.622	-18.62
294.756	-16.62
294.89	8.38
295.023	12.38
295.157	-2.62
295.291	17.38
295.424	-12.62
295.558	12.38
295.691	4.38
295.825	-0.62
295.959	7.38
296.092	7.38
296.226	18.38
296.359	13.38
296.493	2.38
296.627	-0.62
296.76	2.38
296.894	-15.62
297.027	3.38
297.161	-16.62
297.294	-24.62
297.428	-24.62
297.561	19.38
297.695	-3.62
297.828	-11.62
297.962	-14.62
298.095	-24.62
298.229	-12.62
298.362	-6.62
298.495	-9.62
298.629	-8.62
298.762	-1.62
298.896	-9.62
299.029	-7.62
299.162	11.38
299.296	5.38
299.429	-16.62
299.563	13.38
299.696	18.38
299.829	9.38
299.963	2.38
300.096	20.38
300.229	8.38
300.363	-5.62
300.496	-26.62
300.629	-18.62
300.763	-11.62
300.896	-1.62
301.029	21.38
301.162	-12.62
301.296	-10.62
301.429	-2.62
301.562	-18.62
301.695	13.38
301.829	10.38
301.962	5.38
302.095	-7.62
302.228	-26.62
302.362	-3.62
302.495	-27.62
302.628	-11.62
302.761	-17.62
302.894	-0.62
303.027	12.38
303.161	-7.62
303.294	-11.62
303.427	9.38
303.56	3.38
303.693	-1.62
303.826	-4.62
303.959	-2.62
304.092	-10.62
304.225	-10.62
304.359	-3.62
304.492	17.38
304.625	-11.62
304.758	6.38
304.891	-15.62
305.024	1.38
305.157	-5.62
305.29	1.38
305.423	-11.62
305.556	2.38
305.689	14.38
305.822	-1.62
305.955	6.38
306.088	-1.62
306.221	-10.62
306.354	-12.62
306.487	-9.62
306.62	-9.62
306.752	-13.62
306.885	-3.62
307.018	-15.62
307.151	-9.62
307.284	9.38
307.417	-13.62
307.55	-0.62
307.683	5.38
307.816	17.38
307.948	0.38
308.081	17.38
308.214	14.38
308.347	40.38
308.48	-15.62
308.613	-0.62
308.745	8.38
308.878	-19.62
309.011	5.38
309.144	14.38
309.277	-8.62
309.409	4.38
309.542	-8.62
309.675	11.38
309.808	3.38
309.94	11.38
310.073	-23.62
310.206	-20.62
310.339	12.38
310.471	4.38
310.604	19.38
310.737	-1.62
310.869	-6.62
311.002	-9.62
311.135	-15.62
311.267	-34.62
311.4	1.38
311.533	17.38
311.665	-1.62
311.798	-3.62
311.93	2.38
312.063	22.38
312.196	-0.62
312.328	-4.62
312.461	-1.62
312.593	9.38
312.726	15.38
312.859	6.38
312.991	14.38
313.124	-18.62
313.256	3.38
313.389	0.38
313.521	-28.62
313.654	-15.62
313.786	-10.62
313.919	-7.62
314.051	-11.62
314.184	6.38
314.316	19.38
314.449	-19.62
314.581	11.38
314.714	-0.62
314.846	4.38
314.978	-9.62
315.111	-11.62
315.243	-10.62
315.376	-11.62
315.508	11.38
315.641	11.38
315.773	14.38
315.905	13.38
316.038	-11.62
316.17	0.38
316.302	17.38
316.435	4.38
316.567	-15.62
316.699	11.38
316.832	11.38
316.964	3.38
317.096	8.38
317.229	-25.62
317.361	-17.62
317.493	6.38
317.625	-18.62
317.758	22.38
317.89	28.38
318.022	-5.62
318.155	-0.62
318.287	3.38
318.419	4.38
318.551	12.38
318.683	-14.62
318.816	-1.62
318.948	0.38
319.08	-21.62
319.212	-5.62
319.344	-6.62
319.477	8.38
319.609	4.38
319.741	6.38
319.873	-15.62
320.005	8.38
320.137	24.38
320.269	17.38
320.401	5.38
320.534	-3.62
320.666	-18.62
320.798	-14.62
320.93	-13.62
321.062	-21.62
321.194	-19.62
321.326	8.38
321.458	15.38
321.59	-4.62
321.722	-21.62
321.854	-15.62
321.986	-3.62
322.118	-5.62
322.25	-15.62
322.382	17.38
322.514	-7.62
322.646	-20.62
322.778	13.38
322.91	6.38
323.042	11.38
323.174	2.38
323.306	-16.62
323.438	-18.62
323.57	0.38
323.702	6.38
323.834	-14.62
323.966	-13.62
324.097	2.38
324.229	11.38
324.361	13.38
324.493	3.38
324.625	-8.62
324.757	-2.62
324.889	0.38
325.021	-15.62
325.152	15.38
325.284	17.38
325.416	-13.62
325.548	-2.62
325.68	-8.62
325.811	10.38
325.943	14.38
326.075	-18.62
326.207	-14.62
326.339	6.38
326.47	-9.62
326.602	22.38
326.734	2.38
326.866	20.38
326.997	-30.62
327.129	-18.62
327.261	-19.62
327.392	15.38
327.524	3.38
327.656	-0.62
327.787	-1.62
327.919	11.38
328.051	14.38
328.182	16.38
328.314	26.38
328.446	5.38
328.577	13.38
328.709	16.38
328.841	-19.62
328.972	-10.62
329.104	-6.62
329.235	-5.62
329.367	-23.62
329.499	9.38
329.63	-2.62
329.762	-6.62
329.893	7.38
330.025	3.38
330.156	-13.62
330.288	3.38
330.419	18.38
330.551	21.38
330.683	12.38
330.814	1.38
330.946	10.38
331.077	-2.62
331.208	2.38
331.34	-12.62
331.471	-18.62
331.603	-10.62
331.734	-8.62
331.866	-6.62
331.997	14.38
332.129	6.38
332.26	-16.62
332.392	0.38
332.523	5.38
332.654	-6.62
332.786	-1.62
332.917	3.38
333.048	11.38
333.18	19.38
333.311	-19.62
333.443	-10.62
333.574	7.38
333.705	12.38
333.837	-1.62
333.968	-6.62
334.099	16.38
334.231	14.38
334.362	-0.62
334.493	29.38
334.624	18.38
334.756	19.38
334.887	-3.62
335.018	5.38
335.15	-9.62
335.281	-6.62
335.412	3.38
335.543	2.38
335.675	-14.62
335.806	-7.62
335.937	-2.62
336.068	5.38
336.199	15.38
336.331	13.38
336.462	-1.62
336.593	16.38
336.724	-13.62
336.855	-8.62
336.986	-5.62
337.118	-4.62
337.249	-4.62
337.38	-0.62
337.511	3.38
337.642	16.38
337.773	-12.62
337.904	10.38
338.035	-1.62
338.166	-5.62
338.298	-9.62
338.429	-27.62
338.56	14.38
338.691	28.38
338.822	5.38
338.953	6.38
339.084	0.38
339.215	21.38
339.346	4.38
339.477	0.38
339.608	7.38
339.739	7.38
339.87	-22.62
340.001	-5.62
340.132	9.38
340.263	4.38
340.394	26.38
340.525	-0.62
340.656	-9.62
340.787	-14.62
340.918	18.38
341.049	16.38
341.179	-4.62
341.31	1.38
341.441	0.38
341.572	10.38
341.703	16.38
341.834	1.38
341.965	-1.62
342.096	-13.62
342.227	-4.62
342.357	-8.62
342.488	8.38
342.619	6.38
342.75	9.38
342.881	3.38
343.012	16.38
343.142	10.38
343.273	-19.62
343.404	1.38
343.535	33.38
343.666	16.38
343.796	1.38
343.927	5.38
344.058	24.38
344.189	-6.62
344.319	-15.62
344.45	-4.62
344.581	-4.62
344.712	-25.62
344.842	2.38
344.973	-7.62
345.104	10.38
345.234	-2.62
345.365	-14.62
345.496	4.38
345.626	5.38
345.757	12.38
345.888	-15.62
346.018	9.38
346.149	1.38
346.28	21.38
346.41	-0.62
346.541	3.38
346.672	-2.62
346.802	5.38
346.933	-1.62
347.063	1.38
347.194	-9.62
347.325	9.38
347.455	-1.62
347.586	-5.62
347.716	-14.62
347.847	4.38
347.977	7.38
348.108	3.38
348.238	14.38
348.369	3.38
348.499	3.38
348.63	4.38
348.76	4.38
348.891	5.38
349.021	-10.62
349.152	6.38
349.282	-2.62
349.413	-11.62
349.543	-17.62
349.674	6.38
349.804	21.38
349.935	-7.62
350.065	-0.62
350.196	8.38
350.326	1.38
350.456	-9.62
350.587	14.38
350.717	-5.62
350.848	13.38
350.978	26.38
351.108	-17.62
351.239	26.38
351.369	-6.62
351.499	17.38
351.63	19.38
351.76	-2.62
351.89	7.38
352.021	-2.62
352.151	-16.62
352.281	-3.62
352.412	-2.62
352.542	15.38
352.672	-4.62
352.803	13.38
352.933	-1.62
353.063	-12.62
353.193	15.38
353.324	19.38
353.454	6.38
353.584	5.38
353.714	-3.62
353.845	10.38
353.975	-10.62
354.105	-19.62
354.235	9.38
354.365	10.38
354.496	-21.62
354.626	15.38
354.756	6.38
354.886	-0.62
355.016	23.38
355.146	7.38
355.277	-8.62
355.407	4.38
355.537	4.38
355.667	5.38
355.797	-6.62
355.927	-0.62
356.057	14.38
356.187	-11.62
356.318	-3.62
356.448	-0.62
356.578	-2.62
356.708	6.38
356.838	0.38
356.968	0.38
357.098	6.38
357.228	-4.62
357.358	-10.62
357.488	12.38
357.618	12.38
357.748	12.38
357.878	2.38
358.008	1.38
358.138	5.38
358.268	5.38
358.398	-1.62
358.528	-27.62
358.658	3.38
358.788	12.38
358.918	5.38
359.048	1.38
359.178	9.38
359.308	3.38
359.438	5.38
359.568	16.38
359.698	4.38
359.827	-12.62
359.957	-9.62
360.087	-2.62
360.217	-4.62
360.347	6.38
360.477	11.38
360.607	0.38
360.737	17.38
360.866	-4.62
360.996	-8.62
361.126	-2.62
361.256	4.38
361.386	0.38
361.516	-1.62
361.645	-16.62
361.775	5.38
361.905	-24.62
362.035	-1.62
362.165	1.38
362.294	1.38
362.424	17.38
362.554	6.38
362.684	-10.62
362.813	-17.62
362.943	4.38
363.073	-5.62
363.203	-8.62
363.332	13.38
363.462	-18.62
363.592	6.38
363.721	-26.62
363.851	1.38
363.981	12.38
364.111	4.38
364.24	-3.62
364.37	15.38
364.5	25.38
364.629	14.38
364.759	-4.62
364.888	-39.62
365.018	0.38
365.148	-12.62
365.277	4.38
365.407	8.38
365.537	9.38
365.666	-7.62
365.796	-2.62
365.925	9.38
366.055	21.38
366.184	-11.62
366.314	-7.62
366.444	22.38
366.573	10.38
366.703	-9.62
366.832	-0.62
366.962	-1.62
367.091	1.38
367.221	16.38
367.35	2.38
367.48	27.38
367.609	14.38
367.739	10.38
367.868	0.38
367.998	-1.62
368.127	21.38
368.257	20.38
368.386	19.38
368.516	6.38
368.645	7.38
368.775	4.38
368.904	10.38
369.033	-9.62
369.163	-13.62
369.292	0.38
369.422	25.38
369.551	15.38
369.68	7.38
369.81	6.38
369.939	-10.62
370.069	18.38
370.198	17.38
370.327	-14.62
370.457	-10.62
370.586	22.38
370.715	16.38
370.845	-10.62
370.974	3.38
371.103	8.38
371.233	13.38
371.362	14.38
371.491	-7.62
371.621	6.38
371.75	-13.62
371.879	-12.62
372.008	7.38
372.138	-10.62
372.267	11.38
372.396	4.38
372.525	17.38
372.655	-1.62
372.784	9.38
372.913	-5.62
373.042	-6.62
373.172	10.38
373.301	-24.62
373.43	-27.62
373.559	6.38
373.688	20.38
373.818	-9.62
373.947	11.38
374.076	-9.62
374.205	14.38
374.334	-6.62
374.463	-9.62
374.593	14.38
374.722	-5.62
374.851	1.38
374.98	-5.62
375.109	11.38
375.238	13.38
375.367	30.38
375.496	-22.62
375.625	-1.62
375.755	18.38
375.884	24.38
376.013	18.38
376.142	-15.62
376.271	-8.62
376.4	3.38
376.529	5.38
376.658	17.38
376.787	-1.62
376.916	10.38
377.045	-3.62
377.174	8.38
377.303	5.38
377.432	7.38
377.561	6.38
377.69	3.38
377.819	19.38
377.948	-9.62
378.077	-11.62
378.206	-5.62
378.335	-4.62
378.464	13.38
378.593	22.38
378.722	-6.62
378.851	-1.62
378.98	13.38
379.108	5.38
379.237	8.38
379.366	-1.62
379.495	-13.62
379.624	9.38
379.753	-3.62
379.882	4.38
380.011	-8.62
380.14	-2.62
380.268	15.38
380.397	-6.62
380.526	17.38
380.655	-2.62
380.784	-22.62
380.913	4.38
381.041	14.38
381.17	-7.62
381.299	-12.62
381.428	-7.62
381.557	-7.62
381.685	-6.62
381.814	9.38
381.943	0.38
382.072	3.38
382.2	3.38
382.329	13.38
382.458	3.38
382.587	19.38
382.715	29.38
382.844	11.38
382.973	10.38
383.102	4.38
383.23	6.38
383.359	3.38
383.488	4.38
383.616	1.38
383.745	1.38
383.874	1.38
384.003	-1.62
384.131	1.38
384.26	-7.62
384.389	-1.62
384.517	-8.62
384.646	-14.62
384.774	-4.62
384.903	22.38
385.032	27.38
385.16	-13.62
385.289	-8.62
385.418	-8.62
385.546	15.38
385.675	31.38
385.803	16.38
385.932	11.38
386.06	-1.62
386.189	7.38
386.318	3.38
386.446	15.38
386.575	2.38
386.703	-9.62
386.832	-22.62
386.96	-17.62
387.089	18.38
387.217	-3.62
387.346	-9.62
387.474	14.38
387.603	3.38
387.731	0.38
387.86	7.38
387.988	16.38
388.117	-3.62
388.245	5.38
388.374	-2.62
388.502	10.38
388.631	-19.62
388.759	-7.62
388.888	9.38
389.016	-0.62
389.144	-5.62
389.273	-11.62
389.401	-18.62
389.53	-15.62
389.658	16.38
389.786	-6.62
389.915	-15.62
390.043	-36.62
390.172	4.38
390.3	6.38
390.428	-22.62
390.557	4.38
390.685	4.38
390.813	9.38
390.942	1.38
391.07	-5.62
391.198	-1.62
391.327	7.38
391.455	5.38
391.583	30.38
391.712	2.38
391.84	-3.62
391.968	0.38
392.096	11.38
392.225	-10.62
392.353	2.38
392.481	-7.62
392.609	36.38
392.738	8.38
392.866	4.38
392.994	-16.62
393.122	25.38
393.251	1.38
393.379	10.38
393.507	-2.62
393.635	-1.62
393.764	-16.62
393.892	8.38
394.02	-7.62
394.148	-8.62
394.276	8.38
394.404	21.38
394.533	5.38
394.661	11.38
394.789	16.38
394.917	28.38
395.045	6.38
395.173	-6.62
395.302	-2.62
395.43	-12.62
395.558	2.38
395.686	0.38
395.814	0.38
395.942	-8.62
396.07	-11.62
396.198	10.38
396.326	19.38
396.454	20.38
396.582	3.38
396.711	-0.62
396.839	4.38
396.967	14.38
397.095	4.38
397.223	2.38
397.351	17.38
397.479	12.38
397.607	-7.62
397.735	20.38
397.863	14.38
397.991	-2.62
398.119	0.38
398.247	11.38
398.375	-1.62
398.503	12.38
398.631	-3.62
398.759	6.38
398.887	10.38
399.015	0.38
399.143	-1.62
399.271	-2.62
399.399	17.38
399.526	-9.62
399.654	8.38
399.782	-11.62
399.91	27.38
400.038	7.38
400.166	-9.62
400.294	-9.62
400.422	-8.62
400.55	1.38
400.678	5.38
400.805	10.38
400.933	5.38
401.061	13.38
401.189	2.38
401.317	27.38
401.445	12.38
401.573	1.38
401.7	-5.62
401.828	-11.62
401.956	10.38
402.084	22.38
402.212	7.38
402.34	0.38
402.467	8.38
402.595	5.38
402.723	7.38
402.851	9.38
402.978	0.38
403.106	3.38
403.234	-2.62
403.362	5.38
403.489	7.38
403.617	2.38
403.745	11.38
403.873	-10.62
404	9.38
404.128	16.38
404.256	18.38
404.384	23.38
404.511	8.38
404.639	0.38
404.767	-15.62
404.894	6.38
405.022	5.38
405.15	18.38
405.277	-7.62
405.405	-14.62
405.533	-3.62
405.66	17.38
405.788	-6.62
405.916	-14.62
406.043	-7.62
406.171	-10.62
406.299	2.38
406.426	-9.62
406.554	8.38
406.681	11.38
406.809	16.38
406.937	-8.62
407.064	-6.62
407.192	5.38
407.319	13.38
407.447	-23.62
407.574	28.38
407.702	14.38
407.83	-14.62
407.957	-5.62
408.085	-6.62
408.212	-6.62
408.34	-0.62
408.467	-6.62
408.595	7.38
408.722	14.38
408.85	35.38
408.977	4.38
409.105	-1.62
409.232	0.38
409.36	12.38
409.487	8.38
409.615	4.38
409.742	16.38
409.87	24.38
409.997	51.38
410.125	47.38
410.252	44.38
410.379	56.38
410.507	32.38
410.634	16.38
410.762	9.38
410.889	30.38
411.017	16.38
411.144	7.38
411.271	-3.62
411.399	-3.62
411.526	-2.62
411.653	22.38
411.781	16.38
411.908	1.38
412.036	1.38
412.163	29.38
412.29	25.38
412.418	19.38
412.545	15.38
412.672	-6.62
412.8	28.38
412.927	9.38
413.054	31.38
413.182	15.38
413.309	13.38
413.436	-3.62
413.564	-4.62
413.691	4.38
413.818	8.38
413.945	-2.62
414.073	-13.62
414.2	6.38
414.327	3.38
414.454	13.38
414.582	2.38
414.709	-10.62
414.836	-2.62
414.963	11.38
415.091	13.38
415.218	-3.62
415.345	-1.62
415.472	2.38
415.6	-17.62
415.727	2.38
415.854	3.38
415.981	16.38
416.108	8.38
416.236	-10.62
416.363	21.38
416.49	-7.62
416.617	-21.62
416.744	14.38
416.871	9.38
416.998	8.38
417.126	-1.62
417.253	-3.62
417.38	-7.62
417.507	8.38
417.634	-9.62
417.761	4.38
417.888	6.38
418.015	8.38
418.143	2.38
418.27	38.38
418.397	0.38
418.524	18.38
418.651	6.38
418.778	-3.62
418.905	33.38
419.032	15.38
419.159	13.38
419.286	30.38
419.413	11.38
