Data from LowRes_H2_15_26_11_07_2024_HR4C61881__55__15-28-19-137.txt Node

Date: Thu Nov 07 15:28:19 EST 2024
User: crc00042
Spectrometer: HR4C6188
Trigger mode: 4
Integration Time (sec): 1.000000E-1
Scans to average: 1
Electric dark correction enabled: true
Nonlinearity correction enabled: false
Boxcar width: 0
XAxis mode: Wavelengths
Number of Pixels in Spectrum: 3648
>>>>>Begin Spectral Data<<<<<
245.66	-115.31
245.797	-115.31
245.934	-115.31
246.071	-71.31
246.208	13.69
246.344	-9.31
246.481	-9.31
246.618	-20.31
246.755	12.69
246.892	-7.31
247.029	-5.31
247.165	-31.31
247.302	29.69
247.439	0.69
247.576	6.69
247.713	-8.31
247.849	36.69
247.986	4.69
248.123	7.69
248.26	-8.31
248.396	16.69
248.533	-7.31
248.67	-7.31
248.806	-12.31
248.943	-11.31
249.08	28.69
249.216	14.69
249.353	-15.31
249.49	2.69
249.626	12.69
249.763	-9.31
249.9	-15.31
250.036	-2.31
250.173	15.69
250.309	18.69
250.446	-5.31
250.582	-19.31
250.719	-14.31
250.856	7.69
250.992	-1.31
251.129	-0.31
251.265	-15.31
251.402	17.69
251.538	11.69
251.675	6.69
251.811	11.69
251.948	9.69
252.084	-3.31
252.221	7.69
252.357	-5.31
252.493	31.69
252.63	-3.31
252.766	18.69
252.903	-3.31
253.039	20.69
253.175	0.69
253.312	8.69
253.448	-11.31
253.585	-13.31
253.721	14.69
253.857	6.69
253.994	-2.31
254.13	19.69
254.266	25.69
254.403	23.69
254.539	20.69
254.675	23.69
254.811	14.69
254.948	10.69
255.084	9.69
255.22	-11.31
255.356	-7.31
255.493	19.69
255.629	4.69
255.765	18.69
255.901	17.69
256.037	23.69
256.174	10.69
256.31	-1.31
256.446	0.69
256.582	6.69
256.718	11.69
256.854	30.69
256.991	13.69
257.127	14.69
257.263	-3.31
257.399	-14.31
257.535	-12.31
257.671	-0.31
257.807	-17.31
257.943	-7.31
258.079	8.69
258.215	11.69
258.351	6.69
258.487	9.69
258.623	20.69
258.759	7.69
258.895	5.69
259.031	6.69
259.167	-11.31
259.303	23.69
259.439	3.69
259.575	-8.31
259.711	1.69
259.847	-4.31
259.983	19.69
260.119	3.69
260.255	20.69
260.391	13.69
260.527	6.69
260.663	30.69
260.799	12.69
260.934	4.69
261.07	5.69
261.206	8.69
261.342	-2.31
261.478	7.69
261.614	3.69
261.749	-5.31
261.885	-3.31
262.021	-7.31
262.157	22.69
262.293	-4.31
262.428	-6.31
262.564	12.69
262.7	3.69
262.836	-11.31
262.971	22.69
263.107	11.69
263.243	8.69
263.378	0.69
263.514	-20.31
263.65	-7.31
263.785	-22.31
263.921	-11.31
264.057	0.69
264.192	12.69
264.328	16.69
264.464	0.69
264.599	10.69
264.735	24.69
264.871	-0.31
265.006	21.69
265.142	-9.31
265.277	17.69
265.413	13.69
265.548	13.69
265.684	24.69
265.819	8.69
265.955	4.69
266.091	0.69
266.226	-12.31
266.362	4.69
266.497	18.69
266.633	2.69
266.768	14.69
266.903	21.69
267.039	5.69
267.174	25.69
267.31	-9.31
267.445	3.69
267.581	-3.31
267.716	26.69
267.851	14.69
267.987	20.69
268.122	19.69
268.258	-1.31
268.393	-1.31
268.528	-5.31
268.664	-16.31
268.799	-7.31
268.934	31.69
269.07	-1.31
269.205	8.69
269.34	22.69
269.476	16.69
269.611	-3.31
269.746	8.69
269.881	-4.31
270.017	26.69
270.152	-0.31
270.287	16.69
270.422	21.69
270.558	4.69
270.693	8.69
270.828	-5.31
270.963	-12.31
271.098	-5.31
271.234	9.69
271.369	24.69
271.504	2.69
271.639	-4.31
271.774	-1.31
271.909	-5.31
272.045	-17.31
272.18	-8.31
272.315	7.69
272.45	21.69
272.585	-9.31
272.72	16.69
272.855	-0.31
272.99	12.69
273.125	4.69
273.26	-17.31
273.395	1.69
273.53	1.69
273.665	13.69
273.8	2.69
273.935	2.69
274.07	2.69
274.205	10.69
274.34	3.69
274.475	7.69
274.61	16.69
274.745	-20.31
274.88	14.69
275.015	-4.31
275.15	6.69
275.285	10.69
275.42	8.69
275.555	28.69
275.69	22.69
275.825	-1.31
275.959	23.69
276.094	14.69
276.229	-5.31
276.364	-17.31
276.499	5.69
276.634	6.69
276.768	4.69
276.903	13.69
277.038	15.69
277.173	-1.31
277.308	5.69
277.442	-1.31
277.577	-15.31
277.712	13.69
277.847	10.69
277.981	2.69
278.116	-36.31
278.251	-0.31
278.386	-0.31
278.52	0.69
278.655	2.69
278.79	-4.31
278.924	1.69
279.059	20.69
279.194	-12.31
279.328	29.69
279.463	10.69
279.598	23.69
279.732	12.69
279.867	16.69
280.001	17.69
280.136	23.69
280.271	24.69
280.405	12.69
280.54	-4.31
280.674	-21.31
280.809	33.69
280.943	18.69
281.078	11.69
281.213	20.69
281.347	11.69
281.482	4.69
281.616	-22.31
281.751	3.69
281.885	5.69
282.02	12.69
282.154	14.69
282.288	-2.31
282.423	-10.31
282.557	-12.31
282.692	15.69
282.826	13.69
282.961	15.69
283.095	-1.31
283.229	2.69
283.364	-2.31
283.498	5.69
283.633	15.69
283.767	9.69
283.901	12.69
284.036	26.69
284.17	1.69
284.304	-7.31
284.439	7.69
284.573	-16.31
284.707	14.69
284.842	-5.31
284.976	-5.31
285.11	-13.31
285.244	17.69
285.379	54.69
285.513	-24.31
285.647	7.69
285.781	2.69
285.916	10.69
286.05	4.69
286.184	29.69
286.318	0.69
286.453	-1.31
286.587	-15.31
286.721	19.69
286.855	14.69
286.989	7.69
287.123	24.69
287.258	-12.31
287.392	15.69
287.526	20.69
287.66	27.69
287.794	-0.31
287.928	1.69
288.062	14.69
288.196	10.69
288.33	27.69
288.464	32.69
288.598	15.69
288.733	10.69
288.867	20.69
289.001	12.69
289.135	14.69
289.269	7.69
289.403	12.69
289.537	9.69
289.671	6.69
289.805	-17.31
289.939	5.69
290.073	2.69
290.207	18.69
290.34	-3.31
290.474	12.69
290.608	-4.31
290.742	1.69
290.876	-5.31
291.01	-3.31
291.144	23.69
291.278	11.69
291.412	2.69
291.546	-11.31
291.679	-2.31
291.813	9.69
291.947	3.69
292.081	-3.31
292.215	1.69
292.349	17.69
292.482	18.69
292.616	-2.31
292.75	8.69
292.884	8.69
293.018	7.69
293.151	-12.31
293.285	9.69
293.419	-2.31
293.553	1.69
293.686	-7.31
293.82	8.69
293.954	27.69
294.088	35.69
294.221	13.69
294.355	9.69
294.489	11.69
294.622	1.69
294.756	3.69
294.89	3.69
295.023	6.69
295.157	15.69
295.291	1.69
295.424	16.69
295.558	12.69
295.691	2.69
295.825	-19.31
295.959	-0.31
296.092	0.69
296.226	-3.31
296.359	36.69
296.493	3.69
296.627	18.69
296.76	6.69
296.894	0.69
297.027	0.69
297.161	2.69
297.294	-15.31
297.428	0.69
297.561	29.69
297.695	-11.31
297.828	-15.31
297.962	-3.31
298.095	-3.31
298.229	36.69
298.362	0.69
298.495	-4.31
298.629	-1.31
298.762	4.69
298.896	-4.31
299.029	-21.31
299.162	0.69
299.296	9.69
299.429	-5.31
299.563	6.69
299.696	28.69
299.829	0.69
299.963	22.69
300.096	18.69
300.229	2.69
300.363	10.69
300.496	20.69
300.629	-10.31
300.763	2.69
300.896	-7.31
301.029	6.69
301.162	17.69
301.296	-8.31
301.429	0.69
301.562	-7.31
301.695	2.69
301.829	13.69
301.962	14.69
302.095	13.69
302.228	-3.31
302.362	3.69
302.495	8.69
302.628	-1.31
302.761	17.69
302.894	-0.31
303.027	2.69
303.161	8.69
303.294	-12.31
303.427	15.69
303.56	-7.31
303.693	5.69
303.826	1.69
303.959	0.69
304.092	2.69
304.225	-7.31
304.359	13.69
304.492	24.69
304.625	3.69
304.758	6.69
304.891	-8.31
305.024	8.69
305.157	-6.31
305.29	-16.31
305.423	-9.31
305.556	3.69
305.689	11.69
305.822	-6.31
305.955	12.69
306.088	1.69
306.221	-2.31
306.354	18.69
306.487	-18.31
306.62	-0.31
306.752	14.69
306.885	15.69
307.018	8.69
307.151	11.69
307.284	19.69
307.417	-13.31
307.55	10.69
307.683	7.69
307.816	20.69
307.948	4.69
308.081	14.69
308.214	0.69
308.347	11.69
308.48	4.69
308.613	-6.31
308.745	16.69
308.878	-1.31
309.011	0.69
309.144	11.69
309.277	2.69
309.409	8.69
309.542	-5.31
309.675	-2.31
309.808	-3.31
309.94	27.69
310.073	-7.31
310.206	1.69
310.339	-2.31
310.471	-21.31
310.604	35.69
310.737	7.69
310.869	-15.31
311.002	10.69
311.135	13.69
311.267	-4.31
311.4	-0.31
311.533	15.69
311.665	-3.31
311.798	-1.31
311.93	-14.31
312.063	16.69
312.196	12.69
312.328	-6.31
312.461	4.69
312.593	14.69
312.726	21.69
312.859	1.69
312.991	24.69
313.124	-22.31
313.256	9.69
313.389	1.69
313.521	-0.31
313.654	-5.31
313.786	-13.31
313.919	-0.31
314.051	-6.31
314.184	0.69
314.316	3.69
314.449	-11.31
314.581	-11.31
314.714	3.69
314.846	12.69
314.978	-7.31
315.111	1.69
315.243	-3.31
315.376	7.69
315.508	-2.31
315.641	2.69
315.773	26.69
315.905	17.69
316.038	5.69
316.17	-5.31
316.302	11.69
316.435	11.69
316.567	4.69
316.699	13.69
316.832	6.69
316.964	-4.31
317.096	-4.31
317.229	-15.31
317.361	-19.31
317.493	-7.31
317.625	-13.31
317.758	8.69
317.89	12.69
318.022	14.69
318.155	-2.31
318.287	-1.31
318.419	2.69
318.551	1.69
318.683	-13.31
318.816	-17.31
318.948	-2.31
319.08	4.69
319.212	15.69
319.344	10.69
319.477	8.69
319.609	22.69
319.741	14.69
319.873	4.69
320.005	-13.31
320.137	-1.31
320.269	-9.31
320.401	-5.31
320.534	0.69
320.666	-0.31
320.798	-9.31
320.93	1.69
321.062	-8.31
321.194	-2.31
321.326	8.69
321.458	12.69
321.59	5.69
321.722	10.69
321.854	12.69
321.986	17.69
322.118	0.69
322.25	-27.31
322.382	6.69
322.514	-8.31
322.646	13.69
322.778	22.69
322.91	-6.31
323.042	-8.31
323.174	-3.31
323.306	-2.31
323.438	-11.31
323.57	8.69
323.702	-5.31
323.834	2.69
323.966	-15.31
324.097	16.69
324.229	4.69
324.361	14.69
324.493	13.69
324.625	-5.31
324.757	9.69
324.889	9.69
325.021	15.69
325.152	9.69
325.284	16.69
325.416	-3.31
325.548	20.69
325.68	8.69
325.811	10.69
325.943	10.69
326.075	-7.31
326.207	6.69
326.339	25.69
326.47	24.69
326.602	23.69
326.734	-2.31
326.866	17.69
326.997	-5.31
327.129	-8.31
327.261	-6.31
327.392	9.69
327.524	-0.31
327.656	2.69
327.787	27.69
327.919	10.69
328.051	1.69
328.182	13.69
328.314	19.69
328.446	-0.31
328.577	25.69
328.709	-12.31
328.841	-26.31
328.972	-9.31
329.104	-2.31
329.235	3.69
329.367	-8.31
329.499	12.69
329.63	14.69
329.762	22.69
329.893	20.69
330.025	2.69
330.156	-0.31
330.288	-7.31
330.419	4.69
330.551	27.69
330.683	20.69
330.814	15.69
330.946	-0.31
331.077	-3.31
331.208	5.69
331.34	6.69
331.471	5.69
331.603	19.69
331.734	-0.31
331.866	27.69
331.997	9.69
332.129	9.69
332.26	6.69
332.392	15.69
332.523	-7.31
332.654	-16.31
332.786	9.69
332.917	10.69
333.048	13.69
333.18	32.69
333.311	-7.31
333.443	3.69
333.574	-10.31
333.705	21.69
333.837	-6.31
333.968	-7.31
334.099	6.69
334.231	15.69
334.362	3.69
334.493	6.69
334.624	18.69
334.756	21.69
334.887	26.69
335.018	21.69
335.15	16.69
335.281	3.69
335.412	12.69
335.543	9.69
335.675	0.69
335.806	1.69
335.937	-7.31
336.068	11.69
336.199	35.69
336.331	12.69
336.462	11.69
336.593	26.69
336.724	-6.31
336.855	-3.31
336.986	21.69
337.118	8.69
337.249	12.69
337.38	12.69
337.511	6.69
337.642	14.69
337.773	16.69
337.904	8.69
338.035	15.69
338.166	-0.31
338.298	-4.31
338.429	-3.31
338.56	20.69
338.691	3.69
338.822	14.69
338.953	21.69
339.084	28.69
339.215	20.69
339.346	-6.31
339.477	-0.31
339.608	11.69
339.739	4.69
339.87	-1.31
340.001	2.69
340.132	13.69
340.263	13.69
340.394	3.69
340.525	-1.31
340.656	-7.31
340.787	-15.31
340.918	34.69
341.049	24.69
341.179	10.69
341.31	7.69
341.441	12.69
341.572	17.69
341.703	23.69
341.834	-1.31
341.965	7.69
342.096	4.69
342.227	1.69
342.357	4.69
342.488	22.69
342.619	20.69
342.75	11.69
342.881	-0.31
343.012	18.69
343.142	23.69
343.273	-5.31
343.404	12.69
343.535	29.69
343.666	27.69
343.796	-6.31
343.927	10.69
344.058	2.69
344.189	8.69
344.319	0.69
344.45	7.69
344.581	9.69
344.712	-21.31
344.842	6.69
344.973	5.69
345.104	8.69
345.234	-8.31
345.365	6.69
345.496	2.69
345.626	-0.31
345.757	14.69
345.888	-1.31
346.018	22.69
346.149	13.69
346.28	20.69
346.41	-17.31
346.541	27.69
346.672	2.69
346.802	13.69
346.933	12.69
347.063	12.69
347.194	12.69
347.325	22.69
347.455	12.69
347.586	23.69
347.716	-3.31
347.847	8.69
347.977	7.69
348.108	13.69
348.238	14.69
348.369	-0.31
348.499	33.69
348.63	16.69
348.76	16.69
348.891	-11.31
349.021	7.69
349.152	-5.31
349.282	29.69
349.413	8.69
349.543	8.69
349.674	0.69
349.804	9.69
349.935	-10.31
350.065	-0.31
350.196	1.69
350.326	6.69
350.456	14.69
350.587	10.69
350.717	10.69
350.848	23.69
350.978	22.69
351.108	-12.31
351.239	27.69
351.369	-2.31
351.499	4.69
351.63	11.69
351.76	24.69
351.89	10.69
352.021	24.69
352.151	12.69
352.281	12.69
352.412	14.69
352.542	6.69
352.672	13.69
352.803	28.69
352.933	15.69
353.063	0.69
353.193	29.69
353.324	6.69
353.454	9.69
353.584	15.69
353.714	10.69
353.845	9.69
353.975	3.69
354.105	-0.31
354.235	5.69
354.365	1.69
354.496	4.69
354.626	18.69
354.756	33.69
354.886	11.69
355.016	12.69
355.146	-2.31
355.277	7.69
355.407	20.69
355.537	4.69
355.667	14.69
355.797	23.69
355.927	8.69
356.057	-6.31
356.187	-9.31
356.318	-3.31
356.448	-7.31
356.578	18.69
356.708	12.69
356.838	7.69
356.968	10.69
357.098	8.69
357.228	3.69
357.358	-7.31
357.488	4.69
357.618	35.69
357.748	35.69
357.878	4.69
358.008	23.69
358.138	9.69
358.268	-10.31
358.398	-2.31
358.528	-6.31
358.658	20.69
358.788	11.69
358.918	24.69
359.048	16.69
359.178	5.69
359.308	18.69
359.438	26.69
359.568	8.69
359.698	12.69
359.827	20.69
359.957	8.69
360.087	0.69
360.217	2.69
360.347	9.69
360.477	27.69
360.607	10.69
360.737	42.69
360.866	6.69
360.996	-0.31
361.126	2.69
361.256	23.69
361.386	14.69
361.516	39.69
361.645	-10.31
361.775	5.69
361.905	-5.31
362.035	14.69
362.165	8.69
362.294	11.69
362.424	20.69
362.554	12.69
362.684	12.69
362.813	16.69
362.943	25.69
363.073	14.69
363.203	25.69
363.332	22.69
363.462	-5.31
363.592	-0.31
363.721	-13.31
363.851	17.69
363.981	26.69
364.111	12.69
364.24	-7.31
364.37	12.69
364.5	8.69
364.629	11.69
364.759	-19.31
364.888	-4.31
365.018	4.69
365.148	19.69
365.277	5.69
365.407	7.69
365.537	7.69
365.666	3.69
365.796	-4.31
365.925	-12.31
366.055	19.69
366.184	12.69
366.314	4.69
366.444	19.69
366.573	1.69
366.703	-8.31
366.832	21.69
366.962	4.69
367.091	20.69
367.221	14.69
367.35	21.69
367.48	27.69
367.609	26.69
367.739	11.69
367.868	-7.31
367.998	6.69
368.127	26.69
368.257	22.69
368.386	31.69
368.516	28.69
368.645	9.69
368.775	12.69
368.904	6.69
369.033	0.69
369.163	0.69
369.292	2.69
369.422	-1.31
369.551	20.69
369.68	8.69
369.81	20.69
369.939	0.69
370.069	34.69
370.198	18.69
370.327	2.69
370.457	2.69
370.586	16.69
370.715	-3.31
370.845	4.69
370.974	8.69
371.103	21.69
371.233	11.69
371.362	14.69
371.491	-16.31
371.621	18.69
371.75	7.69
371.879	-5.31
372.008	27.69
372.138	2.69
372.267	17.69
372.396	13.69
372.525	9.69
372.655	15.69
372.784	0.69
372.913	11.69
373.042	14.69
373.172	2.69
373.301	-11.31
373.43	2.69
373.559	13.69
373.688	16.69
373.818	25.69
373.947	40.69
374.076	11.69
374.205	22.69
374.334	7.69
374.463	-2.31
374.593	26.69
374.722	25.69
374.851	22.69
374.98	-5.31
375.109	15.69
375.238	24.69
375.367	38.69
375.496	2.69
375.625	2.69
375.755	20.69
375.884	31.69
376.013	12.69
376.142	-8.31
376.271	1.69
376.4	12.69
376.529	-13.31
376.658	18.69
376.787	11.69
376.916	12.69
377.045	16.69
377.174	-3.31
377.303	-1.31
377.432	24.69
377.561	22.69
377.69	3.69
377.819	15.69
377.948	8.69
378.077	-3.31
378.206	3.69
378.335	-2.31
378.464	2.69
378.593	24.69
378.722	-8.31
378.851	-4.31
378.98	18.69
379.108	-19.31
379.237	-21.31
379.366	-2.31
379.495	14.69
379.624	-1.31
379.753	26.69
379.882	13.69
380.011	18.69
380.14	2.69
380.268	0.69
380.397	-16.31
380.526	16.69
380.655	11.69
380.784	-15.31
380.913	-8.31
381.041	12.69
381.17	-7.31
381.299	10.69
381.428	17.69
381.557	6.69
381.685	11.69
381.814	23.69
381.943	20.69
382.072	-4.31
382.2	-0.31
382.329	4.69
382.458	14.69
382.587	7.69
382.715	16.69
382.844	7.69
382.973	16.69
383.102	5.69
383.23	1.69
383.359	-3.31
383.488	11.69
383.616	3.69
383.745	-7.31
383.874	1.69
384.003	14.69
384.131	-3.31
384.26	5.69
384.389	9.69
384.517	0.69
384.646	-15.31
384.774	13.69
384.903	24.69
385.032	16.69
385.16	8.69
385.289	-2.31
385.418	10.69
385.546	16.69
385.675	28.69
385.803	21.69
385.932	24.69
386.06	-7.31
386.189	14.69
386.318	12.69
386.446	2.69
386.575	16.69
386.703	14.69
386.832	2.69
386.96	-8.31
387.089	21.69
387.217	4.69
387.346	3.69
387.474	30.69
387.603	27.69
387.731	10.69
387.86	16.69
387.988	3.69
388.117	15.69
388.245	-0.31
388.374	-11.31
388.502	14.69
388.631	-13.31
388.759	-5.31
388.888	-6.31
389.016	-15.31
389.144	6.69
389.273	12.69
389.401	0.69
389.53	-6.31
389.658	17.69
389.786	-15.31
389.915	1.69
390.043	0.69
390.172	24.69
390.3	27.69
390.428	10.69
390.557	2.69
390.685	12.69
390.813	54.69
390.942	20.69
391.07	2.69
391.198	0.69
391.327	12.69
391.455	-7.31
391.583	21.69
391.712	8.69
391.84	6.69
391.968	-6.31
392.096	1.69
392.225	13.69
392.353	35.69
392.481	9.69
392.609	14.69
392.738	-5.31
392.866	-4.31
392.994	-9.31
393.122	32.69
393.251	-3.31
393.379	-5.31
393.507	-3.31
393.635	14.69
393.764	14.69
393.892	13.69
394.02	-3.31
394.148	-8.31
394.276	8.69
394.404	31.69
394.533	6.69
394.661	24.69
394.789	14.69
394.917	35.69
395.045	8.69
395.173	-6.31
395.302	-7.31
395.43	-1.31
395.558	17.69
395.686	15.69
395.814	22.69
395.942	-1.31
396.07	15.69
396.198	14.69
396.326	11.69
396.454	18.69
396.582	14.69
396.711	7.69
396.839	17.69
396.967	17.69
397.095	2.69
397.223	19.69
397.351	16.69
397.479	24.69
397.607	7.69
397.735	12.69
397.863	12.69
397.991	35.69
398.119	6.69
398.247	16.69
398.375	-1.31
398.503	19.69
398.631	10.69
398.759	12.69
398.887	-5.31
399.015	-3.31
399.143	6.69
399.271	-9.31
399.399	25.69
399.526	37.69
399.654	22.69
399.782	16.69
399.91	14.69
400.038	3.69
400.166	13.69
400.294	16.69
400.422	2.69
400.55	15.69
400.678	17.69
400.805	3.69
400.933	16.69
401.061	23.69
401.189	11.69
401.317	34.69
401.445	30.69
401.573	12.69
401.7	14.69
401.828	17.69
401.956	-6.31
402.084	12.69
402.212	10.69
402.34	4.69
402.467	10.69
402.595	0.69
402.723	8.69
402.851	16.69
402.978	-0.31
403.106	11.69
403.234	0.69
403.362	35.69
403.489	11.69
403.617	15.69
403.745	12.69
403.873	-10.31
404	15.69
404.128	10.69
404.256	30.69
404.384	29.69
404.511	19.69
404.639	4.69
404.767	-4.31
404.894	9.69
405.022	4.69
405.15	8.69
405.277	-5.31
405.405	7.69
405.533	6.69
405.66	-0.31
405.788	-5.31
405.916	-8.31
406.043	4.69
406.171	5.69
406.299	1.69
406.426	9.69
406.554	11.69
406.681	38.69
406.809	19.69
406.937	5.69
407.064	11.69
407.192	25.69
407.319	16.69
407.447	3.69
407.574	14.69
407.702	4.69
407.83	1.69
407.957	-4.31
408.085	26.69
408.212	28.69
408.34	4.69
408.467	7.69
408.595	21.69
408.722	16.69
408.85	21.69
408.977	11.69
409.105	10.69
409.232	15.69
409.36	3.69
409.487	10.69
409.615	21.69
409.742	17.69
409.87	25.69
409.997	38.69
410.125	40.69
410.252	58.69
410.379	47.69
410.507	37.69
410.634	14.69
410.762	15.69
410.889	26.69
411.017	13.69
411.144	14.69
411.271	20.69
411.399	20.69
411.526	7.69
411.653	28.69
411.781	43.69
411.908	31.69
412.036	7.69
412.163	28.69
412.29	16.69
412.418	11.69
412.545	14.69
412.672	0.69
412.8	37.69
412.927	4.69
413.054	31.69
413.182	18.69
413.309	13.69
413.436	-6.31
413.564	-2.31
413.691	-2.31
413.818	40.69
413.945	-8.31
414.073	-13.31
414.2	20.69
414.327	18.69
414.454	21.69
414.582	8.69
414.709	-2.31
414.836	7.69
414.963	10.69
415.091	-7.31
415.218	9.69
415.345	-4.31
415.472	5.69
415.6	-9.31
415.727	12.69
415.854	3.69
415.981	1.69
416.108	3.69
416.236	12.69
416.363	22.69
416.49	0.69
416.617	10.69
416.744	14.69
416.871	13.69
416.998	19.69
417.126	15.69
417.253	8.69
417.38	12.69
417.507	12.69
417.634	0.69
417.761	30.69
417.888	12.69
418.015	3.69
418.143	17.69
418.27	30.69
418.397	6.69
418.524	2.69
418.651	0.69
418.778	4.69
418.905	24.69
419.032	13.69
419.159	2.69
419.286	38.69
419.413	23.69
419.54	21.69
419.667	7.69
419.794	-5.31
419.921	-1.31
420.048	16.69
420.175	5.69
420.302	-4.31
420.429	25.69
420.556	4.69
420.683	-11.31
420.81	13.69
