Data from LowRes_H2_15_26_11_07_2024_HR4C61881__14__15-28-15-037.txt Node

Date: Thu Nov 07 15:28:15 EST 2024
User: crc00042
Spectrometer: HR4C6188
Trigger mode: 4
Integration Time (sec): 1.000000E-1
Scans to average: 1
Electric dark correction enabled: true
Nonlinearity correction enabled: false
Boxcar width: 0
XAxis mode: Wavelengths
Number of Pixels in Spectrum: 3648
>>>>>Begin Spectral Data<<<<<
245.66	-107.38
245.797	-107.38
245.934	-107.38
246.071	-79.38
246.208	2.62
246.344	-4.38
246.481	-20.38
246.618	-10.38
246.755	19.62
246.892	17.62
247.029	-9.38
247.165	-19.38
247.302	5.62
247.439	17.62
247.576	8.62
247.713	-21.38
247.849	30.62
247.986	-14.38
248.123	3.62
248.26	-11.38
248.396	-0.38
248.533	1.62
248.67	0.62
248.806	16.62
248.943	-4.38
249.08	-5.38
249.216	7.62
249.353	-21.38
249.49	-10.38
249.626	-2.38
249.763	-2.38
249.9	-4.38
250.036	0.62
250.173	20.62
250.309	-6.38
250.446	-3.38
250.582	-12.38
250.719	5.62
250.856	9.62
250.992	-6.38
251.129	-10.38
251.265	-9.38
251.402	-6.38
251.538	-5.38
251.675	-5.38
251.811	8.62
251.948	27.62
252.084	10.62
252.221	-6.38
252.357	-16.38
252.493	22.62
252.63	-4.38
252.766	22.62
252.903	-9.38
253.039	4.62
253.175	-0.38
253.312	14.62
253.448	2.62
253.585	-29.38
253.721	0.62
253.857	-9.38
253.994	19.62
254.13	-1.38
254.266	2.62
254.403	9.62
254.539	7.62
254.675	-7.38
254.811	0.62
254.948	-4.38
255.084	-15.38
255.22	-4.38
255.356	12.62
255.493	17.62
255.629	6.62
255.765	-6.38
255.901	6.62
256.037	2.62
256.174	8.62
256.31	1.62
256.446	9.62
256.582	3.62
256.718	4.62
256.854	24.62
256.991	19.62
257.127	23.62
257.263	3.62
257.399	8.62
257.535	0.62
257.671	-9.38
257.807	0.62
257.943	-11.38
258.079	-0.38
258.215	5.62
258.351	29.62
258.487	20.62
258.623	38.62
258.759	-3.38
258.895	-6.38
259.031	-5.38
259.167	-13.38
259.303	22.62
259.439	-12.38
259.575	-21.38
259.711	-8.38
259.847	12.62
259.983	-3.38
260.119	-8.38
260.255	-20.38
260.391	10.62
260.527	6.62
260.663	11.62
260.799	9.62
260.934	-2.38
261.07	-2.38
261.206	-26.38
261.342	-21.38
261.478	19.62
261.614	0.62
261.749	-5.38
261.885	8.62
262.021	4.62
262.157	18.62
262.293	-2.38
262.428	-8.38
262.564	-2.38
262.7	11.62
262.836	16.62
262.971	36.62
263.107	10.62
263.243	12.62
263.378	7.62
263.514	-8.38
263.65	-6.38
263.785	-21.38
263.921	-2.38
264.057	6.62
264.192	11.62
264.328	-2.38
264.464	-11.38
264.599	17.62
264.735	24.62
264.871	-11.38
265.006	-4.38
265.142	15.62
265.277	6.62
265.413	5.62
265.548	20.62
265.684	16.62
265.819	2.62
265.955	-2.38
266.091	-20.38
266.226	-12.38
266.362	9.62
266.497	29.62
266.633	11.62
266.768	-7.38
266.903	11.62
267.039	13.62
267.174	14.62
267.31	11.62
267.445	10.62
267.581	16.62
267.716	9.62
267.851	4.62
267.987	10.62
268.122	11.62
268.258	-15.38
268.393	-0.38
268.528	8.62
268.664	-2.38
268.799	-10.38
268.934	-2.38
269.07	-11.38
269.205	13.62
269.34	22.62
269.476	2.62
269.611	-2.38
269.746	14.62
269.881	26.62
270.017	13.62
270.152	-2.38
270.287	4.62
270.422	-1.38
270.558	-16.38
270.693	4.62
270.828	-9.38
270.963	-1.38
271.098	-3.38
271.234	-0.38
271.369	5.62
271.504	12.62
271.639	-16.38
271.774	3.62
271.909	-24.38
272.045	-12.38
272.18	-10.38
272.315	-9.38
272.45	5.62
272.585	-11.38
272.72	-14.38
272.855	-5.38
272.99	6.62
273.125	3.62
273.26	-22.38
273.395	-18.38
273.53	-11.38
273.665	9.62
273.8	2.62
273.935	7.62
274.07	-16.38
274.205	6.62
274.34	-2.38
274.475	-0.38
274.61	14.62
274.745	5.62
274.88	9.62
275.015	-11.38
275.15	-4.38
275.285	3.62
275.42	1.62
275.555	2.62
275.69	22.62
275.825	-14.38
275.959	6.62
276.094	2.62
276.229	7.62
276.364	-20.38
276.499	-2.38
276.634	2.62
276.768	-12.38
276.903	-0.38
277.038	19.62
277.173	6.62
277.308	3.62
277.442	-12.38
277.577	-14.38
277.712	2.62
277.847	18.62
277.981	16.62
278.116	-7.38
278.251	5.62
278.386	11.62
278.52	11.62
278.655	-5.38
278.79	11.62
278.924	4.62
279.059	20.62
279.194	6.62
279.328	45.62
279.463	27.62
279.598	28.62
279.732	7.62
279.867	20.62
280.001	-12.38
280.136	-10.38
280.271	5.62
280.405	27.62
280.54	-9.38
280.674	-19.38
280.809	-4.38
280.943	-1.38
281.078	-3.38
281.213	10.62
281.347	7.62
281.482	9.62
281.616	3.62
281.751	-0.38
281.885	-9.38
282.02	-6.38
282.154	10.62
282.288	-17.38
282.423	13.62
282.557	-11.38
282.692	7.62
282.826	3.62
282.961	14.62
283.095	6.62
283.229	3.62
283.364	-9.38
283.498	8.62
283.633	-0.38
283.767	13.62
283.901	3.62
284.036	3.62
284.17	-8.38
284.304	-16.38
284.439	8.62
284.573	-6.38
284.707	13.62
284.842	-10.38
284.976	7.62
285.11	-0.38
285.244	34.62
285.379	65.62
285.513	-1.38
285.647	8.62
285.781	-3.38
285.916	8.62
286.05	8.62
286.184	12.62
286.318	28.62
286.453	-5.38
286.587	-12.38
286.721	-21.38
286.855	-14.38
286.989	-0.38
287.123	0.62
287.258	-15.38
287.392	5.62
287.526	17.62
287.66	-0.38
287.794	10.62
287.928	-9.38
288.062	16.62
288.196	-0.38
288.33	11.62
288.464	10.62
288.598	13.62
288.733	7.62
288.867	13.62
289.001	16.62
289.135	1.62
289.269	-25.38
289.403	-3.38
289.537	-7.38
289.671	-0.38
289.805	-6.38
289.939	3.62
290.073	8.62
290.207	20.62
290.34	-13.38
290.474	7.62
290.608	6.62
290.742	-0.38
290.876	-5.38
291.01	-14.38
291.144	43.62
291.278	19.62
291.412	2.62
291.546	-5.38
291.679	6.62
291.813	-1.38
291.947	-3.38
292.081	-11.38
292.215	-11.38
292.349	10.62
292.482	17.62
292.616	7.62
292.75	-11.38
292.884	5.62
293.018	-11.38
293.151	-36.38
293.285	6.62
293.419	-4.38
293.553	1.62
293.686	-14.38
293.82	0.62
293.954	1.62
294.088	8.62
294.221	-3.38
294.355	-6.38
294.489	0.62
294.622	8.62
294.756	-0.38
294.89	-0.38
295.023	11.62
295.157	13.62
295.291	-9.38
295.424	34.62
295.558	11.62
295.691	1.62
295.825	5.62
295.959	-4.38
296.092	1.62
296.226	-7.38
296.359	0.62
296.493	-8.38
296.627	-2.38
296.76	11.62
296.894	0.62
297.027	2.62
297.161	-19.38
297.294	-11.38
297.428	-0.38
297.561	37.62
297.695	-13.38
297.828	-9.38
297.962	-4.38
298.095	-5.38
298.229	-8.38
298.362	-7.38
298.495	-14.38
298.629	-10.38
298.762	0.62
298.896	-1.38
299.029	4.62
299.162	3.62
299.296	-7.38
299.429	-20.38
299.563	-3.38
299.696	1.62
299.829	13.62
299.963	19.62
300.096	-0.38
300.229	11.62
300.363	13.62
300.496	11.62
300.629	-10.38
300.763	-0.38
300.896	17.62
301.029	12.62
301.162	-7.38
301.296	-17.38
301.429	9.62
301.562	-14.38
301.695	2.62
301.829	-2.38
301.962	20.62
302.095	3.62
302.228	3.62
302.362	-2.38
302.495	-16.38
302.628	7.62
302.761	-1.38
302.894	20.62
303.027	14.62
303.161	-10.38
303.294	-16.38
303.427	-6.38
303.56	8.62
303.693	3.62
303.826	-16.38
303.959	-11.38
304.092	0.62
304.225	8.62
304.359	0.62
304.492	-3.38
304.625	-24.38
304.758	6.62
304.891	-7.38
305.024	14.62
305.157	-4.38
305.29	-0.38
305.423	6.62
305.556	22.62
305.689	12.62
305.822	-4.38
305.955	-1.38
306.088	-2.38
306.221	-9.38
306.354	-11.38
306.487	-22.38
306.62	-17.38
306.752	8.62
306.885	-0.38
307.018	8.62
307.151	8.62
307.284	21.62
307.417	-8.38
307.55	5.62
307.683	6.62
307.816	19.62
307.948	12.62
308.081	17.62
308.214	15.62
308.347	13.62
308.48	-8.38
308.613	-21.38
308.745	1.62
308.878	2.62
309.011	13.62
309.144	16.62
309.277	-7.38
309.409	13.62
309.542	1.62
309.675	7.62
309.808	9.62
309.94	25.62
310.073	-5.38
310.206	4.62
310.339	-0.38
310.471	-26.38
310.604	17.62
310.737	11.62
310.869	14.62
311.002	3.62
311.135	-0.38
311.267	-21.38
311.4	1.62
311.533	31.62
311.665	-0.38
311.798	-7.38
311.93	6.62
312.063	-2.38
312.196	2.62
312.328	2.62
312.461	1.62
312.593	12.62
312.726	11.62
312.859	-9.38
312.991	-3.38
313.124	-23.38
313.256	-8.38
313.389	12.62
313.521	-7.38
313.654	-4.38
313.786	-7.38
313.919	-20.38
314.051	3.62
314.184	0.62
314.316	9.62
314.449	-35.38
314.581	-20.38
314.714	2.62
314.846	0.62
314.978	-12.38
315.111	2.62
315.243	4.62
315.376	22.62
315.508	10.62
315.641	2.62
315.773	21.62
315.905	-6.38
316.038	-3.38
316.17	0.62
316.302	4.62
316.435	-7.38
316.567	-3.38
316.699	20.62
316.832	-13.38
316.964	-9.38
317.096	-13.38
317.229	-11.38
317.361	-15.38
317.493	-9.38
317.625	3.62
317.758	13.62
317.89	19.62
318.022	5.62
318.155	-15.38
318.287	2.62
318.419	-3.38
318.551	16.62
318.683	-0.38
318.816	-15.38
318.948	-16.38
319.08	-4.38
319.212	9.62
319.344	3.62
319.477	-4.38
319.609	11.62
319.741	13.62
319.873	-6.38
320.005	-7.38
320.137	0.62
320.269	4.62
320.401	8.62
320.534	-2.38
320.666	-22.38
320.798	-5.38
320.93	-12.38
321.062	-11.38
321.194	-10.38
321.326	-3.38
321.458	32.62
321.59	15.62
321.722	-0.38
321.854	2.62
321.986	-4.38
322.118	4.62
322.25	-15.38
322.382	7.62
322.514	-6.38
322.646	-5.38
322.778	3.62
322.91	1.62
323.042	24.62
323.174	3.62
323.306	-7.38
323.438	-14.38
323.57	2.62
323.702	-2.38
323.834	-3.38
323.966	-6.38
324.097	5.62
324.229	15.62
324.361	4.62
324.493	3.62
324.625	-13.38
324.757	18.62
324.889	4.62
325.021	5.62
325.152	7.62
325.284	-11.38
325.416	-8.38
325.548	12.62
325.68	-13.38
325.811	26.62
325.943	5.62
326.075	-26.38
326.207	1.62
326.339	2.62
326.47	-2.38
326.602	15.62
326.734	7.62
326.866	-15.38
326.997	-21.38
327.129	-0.38
327.261	-26.38
327.392	1.62
327.524	13.62
327.656	3.62
327.787	0.62
327.919	-1.38
328.051	2.62
328.182	20.62
328.314	24.62
328.446	4.62
328.577	16.62
328.709	14.62
328.841	-1.38
328.972	-18.38
329.104	-9.38
329.235	-0.38
329.367	-17.38
329.499	-2.38
329.63	5.62
329.762	17.62
329.893	11.62
330.025	-0.38
330.156	-11.38
330.288	2.62
330.419	29.62
330.551	23.62
330.683	16.62
330.814	-8.38
330.946	10.62
331.077	1.62
331.208	3.62
331.34	-20.38
331.471	-19.38
331.603	-3.38
331.734	-3.38
331.866	3.62
331.997	14.62
332.129	-0.38
332.26	4.62
332.392	25.62
332.523	-5.38
332.654	-26.38
332.786	-14.38
332.917	-17.38
333.048	1.62
333.18	13.62
333.311	-10.38
333.443	-1.38
333.574	-8.38
333.705	14.62
333.837	-5.38
333.968	9.62
334.099	7.62
334.231	27.62
334.362	10.62
334.493	23.62
334.624	12.62
334.756	-12.38
334.887	8.62
335.018	4.62
335.15	13.62
335.281	-10.38
335.412	13.62
335.543	12.62
335.675	11.62
335.806	0.62
335.937	-4.38
336.068	2.62
336.199	17.62
336.331	-4.38
336.462	-9.38
336.593	4.62
336.724	16.62
336.855	11.62
336.986	13.62
337.118	13.62
337.249	25.62
337.38	4.62
337.511	6.62
337.642	3.62
337.773	3.62
337.904	-7.38
338.035	24.62
338.166	-3.38
338.298	8.62
338.429	-12.38
338.56	-7.38
338.691	15.62
338.822	7.62
338.953	8.62
339.084	19.62
339.215	0.62
339.346	-5.38
339.477	-1.38
339.608	3.62
339.739	-13.38
339.87	-5.38
340.001	8.62
340.132	12.62
340.263	-5.38
340.394	-2.38
340.525	6.62
340.656	-7.38
340.787	-24.38
340.918	20.62
341.049	11.62
341.179	20.62
341.31	6.62
341.441	4.62
341.572	8.62
341.703	-0.38
341.834	-10.38
341.965	29.62
342.096	3.62
342.227	11.62
342.357	12.62
342.488	-12.38
342.619	6.62
342.75	10.62
342.881	-20.38
343.012	11.62
343.142	27.62
343.273	3.62
343.404	9.62
343.535	47.62
343.666	14.62
343.796	10.62
343.927	6.62
344.058	17.62
344.189	12.62
344.319	5.62
344.45	-1.38
344.581	-4.38
344.712	-13.38
344.842	0.62
344.973	-4.38
345.104	8.62
345.234	-9.38
345.365	-7.38
345.496	0.62
345.626	8.62
345.757	-9.38
345.888	-1.38
346.018	7.62
346.149	13.62
346.28	25.62
346.41	-9.38
346.541	15.62
346.672	-0.38
346.802	16.62
346.933	-11.38
347.063	3.62
347.194	11.62
347.325	6.62
347.455	10.62
347.586	3.62
347.716	-14.38
347.847	3.62
347.977	7.62
348.108	3.62
348.238	6.62
348.369	-1.38
348.499	25.62
348.63	16.62
348.76	8.62
348.891	25.62
349.021	5.62
349.152	7.62
349.282	12.62
349.413	-4.38
349.543	18.62
349.674	1.62
349.804	16.62
349.935	-5.38
350.065	-0.38
350.196	-8.38
350.326	20.62
350.456	-3.38
350.587	27.62
350.717	0.62
350.848	25.62
350.978	14.62
351.108	-7.38
351.239	19.62
351.369	4.62
351.499	10.62
351.63	12.62
351.76	-16.38
351.89	-10.38
352.021	-8.38
352.151	7.62
352.281	28.62
352.412	21.62
352.542	10.62
352.672	2.62
352.803	2.62
352.933	9.62
353.063	3.62
353.193	9.62
353.324	6.62
353.454	-3.38
353.584	18.62
353.714	8.62
353.845	9.62
353.975	-4.38
354.105	6.62
354.235	9.62
354.365	12.62
354.496	14.62
354.626	21.62
354.756	21.62
354.886	13.62
355.016	6.62
355.146	-10.38
355.277	3.62
355.407	-0.38
355.537	9.62
355.667	10.62
355.797	8.62
355.927	-7.38
356.057	13.62
356.187	-6.38
356.318	-3.38
356.448	-0.38
356.578	-1.38
356.708	15.62
356.838	9.62
356.968	21.62
357.098	11.62
357.228	36.62
357.358	-9.38
357.488	-23.38
357.618	29.62
357.748	8.62
357.878	7.62
358.008	-7.38
358.138	-2.38
358.268	3.62
358.398	11.62
358.528	-14.38
358.658	3.62
358.788	17.62
358.918	33.62
359.048	14.62
359.178	16.62
359.308	-5.38
359.438	41.62
359.568	8.62
359.698	-6.38
359.827	-13.38
359.957	1.62
360.087	9.62
360.217	-12.38
360.347	8.62
360.477	20.62
360.607	-16.38
360.737	9.62
360.866	-10.38
360.996	-18.38
361.126	-9.38
361.256	33.62
361.386	22.62
361.516	15.62
361.645	-5.38
361.775	11.62
361.905	-7.38
362.035	6.62
362.165	-16.38
362.294	16.62
362.424	0.62
362.554	24.62
362.684	-13.38
362.813	13.62
362.943	-3.38
363.073	-10.38
363.203	-5.38
363.332	14.62
363.462	-10.38
363.592	1.62
363.721	-5.38
363.851	7.62
363.981	13.62
364.111	7.62
364.24	-6.38
364.37	33.62
364.5	4.62
364.629	2.62
364.759	-19.38
364.888	5.62
365.018	7.62
365.148	10.62
365.277	17.62
365.407	8.62
365.537	8.62
365.666	8.62
365.796	1.62
365.925	2.62
366.055	-8.38
366.184	3.62
366.314	0.62
366.444	9.62
366.573	9.62
366.703	8.62
366.832	5.62
366.962	19.62
367.091	24.62
367.221	8.62
367.35	10.62
367.48	53.62
367.609	18.62
367.739	1.62
367.868	-3.38
367.998	16.62
368.127	26.62
368.257	20.62
368.386	25.62
368.516	15.62
368.645	1.62
368.775	-7.38
368.904	-2.38
369.033	-4.38
369.163	0.62
369.292	15.62
369.422	3.62
369.551	23.62
369.68	32.62
369.81	11.62
369.939	-13.38
370.069	44.62
370.198	10.62
370.327	-4.38
370.457	-0.38
370.586	5.62
370.715	-2.38
370.845	-6.38
370.974	20.62
371.103	15.62
371.233	10.62
371.362	27.62
371.491	15.62
371.621	27.62
371.75	17.62
371.879	9.62
372.008	-8.38
372.138	3.62
372.267	1.62
372.396	-0.38
372.525	-2.38
372.655	14.62
372.784	10.62
372.913	-4.38
373.042	9.62
373.172	23.62
373.301	-3.38
373.43	5.62
373.559	5.62
373.688	3.62
373.818	24.62
373.947	7.62
374.076	8.62
374.205	15.62
374.334	-7.38
374.463	-4.38
374.593	23.62
374.722	21.62
374.851	28.62
374.98	-5.38
375.109	-7.38
375.238	-0.38
375.367	30.62
375.496	4.62
375.625	-20.38
375.755	19.62
375.884	28.62
376.013	19.62
376.142	-16.38
376.271	-1.38
376.4	2.62
376.529	-7.38
376.658	13.62
376.787	8.62
376.916	4.62
377.045	1.62
377.174	-7.38
377.303	-3.38
377.432	32.62
377.561	19.62
377.69	15.62
377.819	27.62
377.948	0.62
378.077	8.62
378.206	-3.38
378.335	-9.38
378.464	1.62
378.593	30.62
378.722	-13.38
378.851	-16.38
378.98	15.62
379.108	-2.38
379.237	-16.38
379.366	2.62
379.495	21.62
379.624	6.62
379.753	11.62
379.882	6.62
380.011	12.62
380.14	-10.38
380.268	11.62
380.397	3.62
380.526	35.62
380.655	-1.38
380.784	-2.38
380.913	-7.38
381.041	4.62
381.17	-21.38
381.299	3.62
381.428	4.62
381.557	10.62
381.685	15.62
381.814	14.62
381.943	1.62
382.072	17.62
382.2	-3.38
382.329	0.62
382.458	22.62
382.587	19.62
382.715	24.62
382.844	7.62
382.973	13.62
383.102	12.62
383.23	26.62
383.359	-0.38
383.488	25.62
383.616	11.62
383.745	-4.38
383.874	-7.38
384.003	-4.38
384.131	-16.38
384.26	1.62
384.389	17.62
384.517	-4.38
384.646	-13.38
384.774	5.62
384.903	30.62
385.032	17.62
385.16	4.62
385.289	-16.38
385.418	1.62
385.546	12.62
385.675	10.62
385.803	3.62
385.932	10.62
386.06	-4.38
386.189	10.62
386.318	-4.38
386.446	-10.38
386.575	1.62
386.703	23.62
386.832	2.62
386.96	-10.38
387.089	29.62
387.217	5.62
387.346	7.62
387.474	-6.38
387.603	13.62
387.731	9.62
387.86	8.62
387.988	9.62
388.117	15.62
388.245	4.62
388.374	3.62
388.502	5.62
388.631	-0.38
388.759	-4.38
388.888	14.62
389.016	6.62
389.144	-1.38
389.273	11.62
389.401	0.62
389.53	0.62
389.658	6.62
389.786	-1.38
389.915	-5.38
390.043	-3.38
390.172	-8.38
390.3	20.62
390.428	19.62
390.557	-5.38
390.685	16.62
390.813	9.62
390.942	5.62
391.07	19.62
391.198	-1.38
391.327	6.62
391.455	-10.38
391.583	20.62
391.712	9.62
391.84	6.62
391.968	10.62
392.096	-13.38
392.225	-5.38
392.353	8.62
392.481	11.62
392.609	19.62
392.738	-10.38
392.866	11.62
392.994	2.62
393.122	8.62
393.251	2.62
393.379	-6.38
393.507	-13.38
393.635	0.62
393.764	19.62
393.892	18.62
394.02	16.62
394.148	0.62
394.276	4.62
394.404	21.62
394.533	7.62
394.661	10.62
394.789	19.62
394.917	26.62
395.045	-17.38
395.173	-11.38
395.302	-2.38
395.43	2.62
395.558	28.62
395.686	16.62
395.814	18.62
395.942	4.62
396.07	6.62
396.198	14.62
396.326	4.62
396.454	18.62
396.582	1.62
396.711	-6.38
396.839	24.62
396.967	3.62
397.095	2.62
397.223	28.62
397.351	15.62
397.479	32.62
397.607	-5.38
397.735	-0.38
397.863	20.62
397.991	13.62
398.119	-20.38
398.247	-4.38
398.375	6.62
398.503	11.62
398.631	-4.38
398.759	-0.38
398.887	-1.38
399.015	-2.38
399.143	7.62
399.271	11.62
399.399	5.62
399.526	19.62
399.654	30.62
399.782	-4.38
399.91	12.62
400.038	30.62
400.166	18.62
400.294	-2.38
400.422	-8.38
400.55	-7.38
400.678	0.62
400.805	-8.38
400.933	18.62
401.061	6.62
401.189	-5.38
401.317	16.62
401.445	11.62
401.573	28.62
401.7	4.62
401.828	-25.38
401.956	19.62
402.084	16.62
402.212	1.62
402.34	21.62
402.467	11.62
402.595	12.62
402.723	1.62
402.851	21.62
402.978	17.62
403.106	17.62
403.234	15.62
403.362	23.62
403.489	9.62
403.617	5.62
403.745	-4.38
403.873	-8.38
404	25.62
404.128	35.62
404.256	12.62
404.384	18.62
404.511	11.62
404.639	-22.38
404.767	1.62
404.894	1.62
405.022	6.62
405.15	19.62
405.277	-11.38
405.405	-1.38
405.533	-5.38
405.66	-6.38
405.788	-8.38
405.916	-24.38
406.043	-6.38
406.171	-8.38
406.299	14.62
406.426	14.62
406.554	31.62
406.681	27.62
406.809	4.62
406.937	20.62
407.064	2.62
407.192	29.62
407.319	21.62
407.447	1.62
407.574	20.62
407.702	11.62
407.83	-10.38
407.957	-7.38
408.085	9.62
408.212	8.62
408.34	-3.38
408.467	-2.38
408.595	9.62
408.722	19.62
408.85	6.62
408.977	9.62
409.105	21.62
409.232	5.62
409.36	-1.38
409.487	-0.38
409.615	6.62
409.742	30.62
409.87	9.62
409.997	29.62
410.125	39.62
410.252	51.62
410.379	59.62
410.507	41.62
410.634	2.62
410.762	-3.38
410.889	29.62
411.017	8.62
411.144	1.62
411.271	4.62
411.399	-6.38
411.526	22.62
411.653	10.62
411.781	36.62
411.908	18.62
412.036	-13.38
412.163	19.62
412.29	11.62
412.418	6.62
412.545	-1.38
412.672	1.62
412.8	32.62
412.927	8.62
413.054	35.62
413.182	20.62
413.309	20.62
413.436	-11.38
413.564	-3.38
413.691	5.62
413.818	23.62
413.945	-3.38
414.073	3.62
414.2	-2.38
414.327	-3.38
414.454	4.62
414.582	12.62
414.709	-4.38
414.836	-2.38
414.963	8.62
415.091	20.62
415.218	5.62
415.345	-2.38
415.472	-8.38
415.6	-6.38
415.727	9.62
415.854	-6.38
415.981	1.62
416.108	-15.38
416.236	2.62
416.363	12.62
416.49	1.62
416.617	1.62
416.744	19.62
416.871	17.62
416.998	16.62
417.126	14.62
417.253	8.62
417.38	12.62
417.507	7.62
417.634	16.62
417.761	29.62
417.888	19.62
418.015	13.62
418.143	17.62
418.27	24.62
418.397	8.62
418.524	0.62
418.651	-4.38
418.778	20.62
418.905	37.62
419.032	21.62
419.159	-8.38
419.286	22.62
419.413	9.62
419.54	26.62
419.667	-6.38
419.794	-9.38
419.921	-2.38
420.048	-0.38
420.175	1.62
420.302	-7.38
420.429	-3.38
