Data from LowRes_H2_15_26_11_07_2024_HR4C61881__50__15-28-18-637.txt Node

Date: Thu Nov 07 15:28:18 EST 2024
User: crc00042
Spectrometer: HR4C6188
Trigger mode: 4
Integration Time (sec): 1.000000E-1
Scans to average: 1
Electric dark correction enabled: true
Nonlinearity correction enabled: false
Boxcar width: 0
XAxis mode: Wavelengths
Number of Pixels in Spectrum: 3648
>>>>>Begin Spectral Data<<<<<
245.66	-108.69
245.797	-108.69
245.934	-108.69
246.071	-92.69
246.208	14.31
246.344	8.31
246.481	-22.69
246.618	-13.69
246.755	2.31
246.892	0.31
247.029	-5.69
247.165	-6.69
247.302	2.31
247.439	7.31
247.576	-6.69
247.713	1.31
247.849	35.31
247.986	-1.69
248.123	-2.69
248.26	-6.69
248.396	7.31
248.533	-8.69
248.67	-6.69
248.806	-3.69
248.943	-20.69
249.08	-6.69
249.216	15.31
249.353	-0.69
249.49	-6.69
249.626	-8.69
249.763	7.31
249.9	-7.69
250.036	15.31
250.173	9.31
250.309	-4.69
250.446	7.31
250.582	-10.69
250.719	-37.69
250.856	-6.69
250.992	10.31
251.129	-16.69
251.265	-3.69
251.402	2.31
251.538	12.31
251.675	-3.69
251.811	10.31
251.948	14.31
252.084	-8.69
252.221	-10.69
252.357	-8.69
252.493	21.31
252.63	7.31
252.766	18.31
252.903	3.31
253.039	2.31
253.175	8.31
253.312	5.31
253.448	-15.69
253.585	-14.69
253.721	14.31
253.857	-14.69
253.994	0.31
254.13	4.31
254.266	-2.69
254.403	11.31
254.539	21.31
254.675	6.31
254.811	0.31
254.948	14.31
255.084	-14.69
255.22	-15.69
255.356	1.31
255.493	4.31
255.629	-4.69
255.765	20.31
255.901	19.31
256.037	10.31
256.174	-8.69
256.31	0.31
256.446	-14.69
256.582	-3.69
256.718	7.31
256.854	9.31
256.991	-3.69
257.127	-4.69
257.263	4.31
257.399	6.31
257.535	-5.69
257.671	-1.69
257.807	-28.69
257.943	-24.69
258.079	-2.69
258.215	-13.69
258.351	27.31
258.487	4.31
258.623	24.31
258.759	8.31
258.895	9.31
259.031	-2.69
259.167	-16.69
259.303	7.31
259.439	-24.69
259.575	-21.69
259.711	-5.69
259.847	-32.69
259.983	17.31
260.119	-12.69
260.255	-16.69
260.391	2.31
260.527	5.31
260.663	17.31
260.799	18.31
260.934	-7.69
261.07	-17.69
261.206	-6.69
261.342	-9.69
261.478	6.31
261.614	3.31
261.749	4.31
261.885	-10.69
262.021	-7.69
262.157	23.31
262.293	11.31
262.428	1.31
262.564	3.31
262.7	-5.69
262.836	-3.69
262.971	8.31
263.107	12.31
263.243	-0.69
263.378	-1.69
263.514	-11.69
263.65	9.31
263.785	0.31
263.921	-9.69
264.057	11.31
264.192	5.31
264.328	18.31
264.464	-10.69
264.599	19.31
264.735	11.31
264.871	-13.69
265.006	-8.69
265.142	1.31
265.277	3.31
265.413	7.31
265.548	12.31
265.684	30.31
265.819	-9.69
265.955	-13.69
266.091	-6.69
266.226	-14.69
266.362	2.31
266.497	15.31
266.633	2.31
266.768	-6.69
266.903	6.31
267.039	5.31
267.174	7.31
267.31	-0.69
267.445	-7.69
267.581	-3.69
267.716	10.31
267.851	9.31
267.987	2.31
268.122	2.31
268.258	0.31
268.393	-13.69
268.528	-5.69
268.664	-23.69
268.799	-19.69
268.934	-12.69
269.07	-8.69
269.205	1.31
269.34	22.31
269.476	-6.69
269.611	-20.69
269.746	15.31
269.881	15.31
270.017	23.31
270.152	-5.69
270.287	0.31
270.422	8.31
270.558	-4.69
270.693	6.31
270.828	3.31
270.963	-11.69
271.098	-4.69
271.234	0.31
271.369	13.31
271.504	-13.69
271.639	2.31
271.774	-9.69
271.909	0.31
272.045	-24.69
272.18	-3.69
272.315	-0.69
272.45	16.31
272.585	-14.69
272.72	-8.69
272.855	-18.69
272.99	7.31
273.125	2.31
273.26	-15.69
273.395	-4.69
273.53	-6.69
273.665	25.31
273.8	-5.69
273.935	15.31
274.07	9.31
274.205	17.31
274.34	3.31
274.475	-1.69
274.61	8.31
274.745	2.31
274.88	12.31
275.015	6.31
275.15	23.31
275.285	7.31
275.42	3.31
275.555	7.31
275.69	9.31
275.825	-9.69
275.959	15.31
276.094	3.31
276.229	4.31
276.364	-20.69
276.499	1.31
276.634	10.31
276.768	-10.69
276.903	-2.69
277.038	2.31
277.173	-10.69
277.308	0.31
277.442	-11.69
277.577	-3.69
277.712	-0.69
277.847	-0.69
277.981	6.31
278.116	-16.69
278.251	1.31
278.386	-4.69
278.52	5.31
278.655	-2.69
278.79	13.31
278.924	-5.69
279.059	-8.69
279.194	-3.69
279.328	48.31
279.463	6.31
279.598	20.31
279.732	18.31
279.867	24.31
280.001	11.31
280.136	1.31
280.271	2.31
280.405	-10.69
280.54	1.31
280.674	-4.69
280.809	22.31
280.943	10.31
281.078	5.31
281.213	17.31
281.347	19.31
281.482	6.31
281.616	-16.69
281.751	-2.69
281.885	-6.69
282.02	12.31
282.154	24.31
282.288	-14.69
282.423	-14.69
282.557	-9.69
282.692	-1.69
282.826	3.31
282.961	17.31
283.095	-6.69
283.229	-6.69
283.364	-5.69
283.498	-5.69
283.633	13.31
283.767	-5.69
283.901	-0.69
284.036	-8.69
284.17	-22.69
284.304	-18.69
284.439	10.31
284.573	-7.69
284.707	7.31
284.842	-25.69
284.976	-2.69
285.11	-9.69
285.244	-13.69
285.379	43.31
285.513	-9.69
285.647	14.31
285.781	2.31
285.916	-2.69
286.05	-4.69
286.184	27.31
286.318	19.31
286.453	-7.69
286.587	-18.69
286.721	4.31
286.855	9.31
286.989	9.31
287.123	-7.69
287.258	5.31
287.392	5.31
287.526	21.31
287.66	1.31
287.794	8.31
287.928	-9.69
288.062	-0.69
288.196	0.31
288.33	15.31
288.464	17.31
288.598	-0.69
288.733	-8.69
288.867	24.31
289.001	14.31
289.135	10.31
289.269	-8.69
289.403	-7.69
289.537	2.31
289.671	-0.69
289.805	-15.69
289.939	3.31
290.073	-8.69
290.207	24.31
290.34	0.31
290.474	7.31
290.608	3.31
290.742	2.31
290.876	-5.69
291.01	0.31
291.144	23.31
291.278	4.31
291.412	-8.69
291.546	0.31
291.679	-2.69
291.813	19.31
291.947	3.31
292.081	4.31
292.215	7.31
292.349	17.31
292.482	-2.69
292.616	-10.69
292.75	3.31
292.884	13.31
293.018	8.31
293.151	-9.69
293.285	9.31
293.419	0.31
293.553	-10.69
293.686	-10.69
293.82	-21.69
293.954	40.31
294.088	22.31
294.221	-11.69
294.355	-27.69
294.489	-6.69
294.622	-5.69
294.756	10.31
294.89	8.31
295.023	-6.69
295.157	-7.69
295.291	8.31
295.424	10.31
295.558	-0.69
295.691	12.31
295.825	4.31
295.959	3.31
296.092	-24.69
296.226	11.31
296.359	-0.69
296.493	0.31
296.627	-1.69
296.76	-11.69
296.894	-7.69
297.027	-12.69
297.161	-8.69
297.294	-22.69
297.428	-9.69
297.561	17.31
297.695	-5.69
297.828	-1.69
297.962	-2.69
298.095	-10.69
298.229	-2.69
298.362	-12.69
298.495	-8.69
298.629	-39.69
298.762	-14.69
298.896	-2.69
299.029	-20.69
299.162	-15.69
299.296	12.31
299.429	-1.69
299.563	1.31
299.696	5.31
299.829	7.31
299.963	4.31
300.096	8.31
300.229	-0.69
300.363	4.31
300.496	8.31
300.629	-14.69
300.763	-21.69
300.896	-11.69
301.029	7.31
301.162	-16.69
301.296	-21.69
301.429	-2.69
301.562	-4.69
301.695	6.31
301.829	13.31
301.962	22.31
302.095	7.31
302.228	-16.69
302.362	-17.69
302.495	-14.69
302.628	1.31
302.761	7.31
302.894	-7.69
303.027	9.31
303.161	-2.69
303.294	-12.69
303.427	18.31
303.56	5.31
303.693	-0.69
303.826	15.31
303.959	-4.69
304.092	-1.69
304.225	-1.69
304.359	6.31
304.492	-6.69
304.625	-11.69
304.758	8.31
304.891	-10.69
305.024	-0.69
305.157	-2.69
305.29	-19.69
305.423	-3.69
305.556	-0.69
305.689	20.31
305.822	-4.69
305.955	-13.69
306.088	-11.69
306.221	-3.69
306.354	-12.69
306.487	-17.69
306.62	-5.69
306.752	1.31
306.885	1.31
307.018	2.31
307.151	-10.69
307.284	30.31
307.417	-9.69
307.55	7.31
307.683	-11.69
307.816	0.31
307.948	9.31
308.081	20.31
308.214	4.31
308.347	7.31
308.48	-7.69
308.613	-10.69
308.745	3.31
308.878	8.31
309.011	7.31
309.144	11.31
309.277	6.31
309.409	2.31
309.542	-16.69
309.675	2.31
309.808	-0.69
309.94	14.31
310.073	-27.69
310.206	-3.69
310.339	1.31
310.471	-10.69
310.604	22.31
310.737	17.31
310.869	-2.69
311.002	-15.69
311.135	-14.69
311.267	-22.69
311.4	9.31
311.533	18.31
311.665	13.31
311.798	-4.69
311.93	12.31
312.063	25.31
312.196	7.31
312.328	-11.69
312.461	4.31
312.593	10.31
312.726	19.31
312.859	9.31
312.991	8.31
313.124	-20.69
313.256	9.31
313.389	1.31
313.521	-7.69
313.654	-7.69
313.786	-25.69
313.919	-4.69
314.051	-13.69
314.184	2.31
314.316	3.31
314.449	-15.69
314.581	-8.69
314.714	-13.69
314.846	11.31
314.978	5.31
315.111	-27.69
315.243	-8.69
315.376	12.31
315.508	8.31
315.641	-2.69
315.773	14.31
315.905	1.31
316.038	8.31
316.17	5.31
316.302	-2.69
316.435	1.31
316.567	2.31
316.699	26.31
316.832	-9.69
316.964	-2.69
317.096	-9.69
317.229	-17.69
317.361	-16.69
317.493	-9.69
317.625	-10.69
317.758	0.31
317.89	0.31
318.022	-1.69
318.155	-0.69
318.287	-2.69
318.419	8.31
318.551	12.31
318.683	3.31
318.816	-8.69
318.948	5.31
319.08	-9.69
319.212	15.31
319.344	17.31
319.477	18.31
319.609	13.31
319.741	2.31
319.873	-15.69
320.005	5.31
320.137	-3.69
320.269	3.31
320.401	2.31
320.534	-4.69
320.666	-24.69
320.798	-11.69
320.93	-8.69
321.062	-3.69
321.194	0.31
321.326	-4.69
321.458	6.31
321.59	-12.69
321.722	1.31
321.854	7.31
321.986	-3.69
322.118	2.31
322.25	-6.69
322.382	6.31
322.514	6.31
322.646	-27.69
322.778	16.31
322.91	-1.69
323.042	-12.69
323.174	-4.69
323.306	-22.69
323.438	-21.69
323.57	-18.69
323.702	-1.69
323.834	10.31
323.966	-5.69
324.097	3.31
324.229	20.31
324.361	15.31
324.493	-2.69
324.625	-25.69
324.757	20.31
324.889	5.31
325.021	26.31
325.152	-0.69
325.284	-1.69
325.416	-4.69
325.548	-0.69
325.68	-1.69
325.811	28.31
325.943	12.31
326.075	-18.69
326.207	-9.69
326.339	10.31
326.47	-8.69
326.602	7.31
326.734	15.31
326.866	20.31
326.997	-14.69
327.129	-5.69
327.261	-25.69
327.392	-11.69
327.524	-0.69
327.656	-0.69
327.787	10.31
327.919	-4.69
328.051	-4.69
328.182	19.31
328.314	21.31
328.446	5.31
328.577	9.31
328.709	18.31
328.841	-15.69
328.972	-20.69
329.104	-13.69
329.235	-22.69
329.367	8.31
329.499	3.31
329.63	-3.69
329.762	3.31
329.893	10.31
330.025	-1.69
330.156	8.31
330.288	5.31
330.419	32.31
330.551	31.31
330.683	4.31
330.814	1.31
330.946	4.31
331.077	8.31
331.208	-16.69
331.34	2.31
331.471	-11.69
331.603	-20.69
331.734	-15.69
331.866	-0.69
331.997	-2.69
332.129	-7.69
332.26	-10.69
332.392	17.31
332.523	-0.69
332.654	-14.69
332.786	-8.69
332.917	-10.69
333.048	17.31
333.18	21.31
333.311	-12.69
333.443	7.31
333.574	-8.69
333.705	29.31
333.837	5.31
333.968	9.31
334.099	15.31
334.231	11.31
334.362	-10.69
334.493	16.31
334.624	17.31
334.756	-6.69
334.887	2.31
335.018	5.31
335.15	7.31
335.281	1.31
335.412	23.31
335.543	-4.69
335.675	2.31
335.806	2.31
335.937	-9.69
336.068	10.31
336.199	15.31
336.331	-11.69
336.462	-6.69
336.593	23.31
336.724	2.31
336.855	12.31
336.986	19.31
337.118	12.31
337.249	10.31
337.38	4.31
337.511	3.31
337.642	11.31
337.773	-10.69
337.904	11.31
338.035	18.31
338.166	13.31
338.298	10.31
338.429	6.31
338.56	8.31
338.691	19.31
338.822	-1.69
338.953	2.31
339.084	8.31
339.215	-11.69
339.346	12.31
339.477	-3.69
339.608	2.31
339.739	-11.69
339.87	-7.69
340.001	1.31
340.132	1.31
340.263	-1.69
340.394	-0.69
340.525	-4.69
340.656	-24.69
340.787	-29.69
340.918	18.31
341.049	29.31
341.179	-0.69
341.31	-7.69
341.441	30.31
341.572	1.31
341.703	9.31
341.834	-14.69
341.965	11.31
342.096	-0.69
342.227	3.31
342.357	3.31
342.488	5.31
342.619	8.31
342.75	3.31
342.881	-5.69
343.012	20.31
343.142	15.31
343.273	-14.69
343.404	0.31
343.535	43.31
343.666	17.31
343.796	14.31
343.927	-4.69
344.058	32.31
344.189	7.31
344.319	15.31
344.45	4.31
344.581	1.31
344.712	-16.69
344.842	-6.69
344.973	7.31
345.104	-8.69
345.234	1.31
345.365	-13.69
345.496	-7.69
345.626	9.31
345.757	17.31
345.888	-6.69
346.018	19.31
346.149	-5.69
346.28	33.31
346.41	-4.69
346.541	5.31
346.672	-9.69
346.802	14.31
346.933	7.31
347.063	0.31
347.194	-5.69
347.325	1.31
347.455	7.31
347.586	-5.69
347.716	-10.69
347.847	2.31
347.977	1.31
348.108	33.31
348.238	12.31
348.369	5.31
348.499	13.31
348.63	-9.69
348.76	-1.69
348.891	16.31
349.021	-11.69
349.152	1.31
349.282	7.31
349.413	9.31
349.543	29.31
349.674	24.31
349.804	16.31
349.935	-9.69
350.065	0.31
350.196	5.31
350.326	10.31
350.456	-4.69
350.587	32.31
350.717	-12.69
350.848	5.31
350.978	18.31
351.108	-12.69
351.239	4.31
351.369	-14.69
351.499	-5.69
351.63	24.31
351.76	10.31
351.89	-4.69
352.021	-0.69
352.151	-5.69
352.281	24.31
352.412	4.31
352.542	11.31
352.672	-0.69
352.803	-7.69
352.933	-15.69
353.063	14.31
353.193	11.31
353.324	17.31
353.454	7.31
353.584	28.31
353.714	6.31
353.845	11.31
353.975	5.31
354.105	2.31
354.235	-7.69
354.365	4.31
354.496	-12.69
354.626	-0.69
354.756	3.31
354.886	-0.69
355.016	26.31
355.146	4.31
355.277	-6.69
355.407	-21.69
355.537	1.31
355.667	5.31
355.797	20.31
355.927	3.31
356.057	5.31
356.187	-18.69
356.318	10.31
356.448	-5.69
356.578	-8.69
356.708	9.31
356.838	14.31
356.968	7.31
357.098	9.31
357.228	19.31
357.358	7.31
357.488	-2.69
357.618	21.31
357.748	13.31
357.878	7.31
358.008	-7.69
358.138	-6.69
358.268	-18.69
358.398	26.31
358.528	3.31
358.658	-9.69
358.788	5.31
358.918	3.31
359.048	-2.69
359.178	12.31
359.308	6.31
359.438	18.31
359.568	15.31
359.698	8.31
359.827	-10.69
359.957	7.31
360.087	12.31
360.217	-2.69
360.347	-5.69
360.477	8.31
360.607	-0.69
360.737	21.31
360.866	-15.69
360.996	-22.69
361.126	0.31
361.256	27.31
361.386	5.31
361.516	20.31
361.645	-9.69
361.775	16.31
361.905	-14.69
362.035	9.31
362.165	-7.69
362.294	12.31
362.424	22.31
362.554	9.31
362.684	-0.69
362.813	7.31
362.943	13.31
363.073	-0.69
363.203	-4.69
363.332	3.31
363.462	-1.69
363.592	-6.69
363.721	-3.69
363.851	0.31
363.981	17.31
364.111	-20.69
364.24	-5.69
364.37	3.31
364.5	17.31
364.629	4.31
364.759	-21.69
364.888	-26.69
365.018	2.31
365.148	-13.69
365.277	13.31
365.407	14.31
365.537	27.31
365.666	4.31
365.796	1.31
365.925	15.31
366.055	30.31
366.184	8.31
366.314	-0.69
366.444	1.31
366.573	-5.69
366.703	1.31
366.832	10.31
366.962	8.31
367.091	27.31
367.221	8.31
367.35	13.31
367.48	33.31
367.609	18.31
367.739	23.31
367.868	-4.69
367.998	6.31
368.127	18.31
368.257	22.31
368.386	23.31
368.516	9.31
368.645	17.31
368.775	5.31
368.904	8.31
369.033	-24.69
369.163	-10.69
369.292	-1.69
369.422	9.31
369.551	14.31
369.68	21.31
369.81	7.31
369.939	-10.69
370.069	41.31
370.198	14.31
370.327	-20.69
370.457	-1.69
370.586	5.31
370.715	1.31
370.845	1.31
370.974	13.31
371.103	30.31
371.233	-7.69
371.362	8.31
371.491	-6.69
371.621	17.31
371.75	11.31
371.879	-2.69
372.008	14.31
372.138	9.31
372.267	4.31
372.396	-3.69
372.525	10.31
372.655	9.31
372.784	-7.69
372.913	-12.69
373.042	-5.69
373.172	28.31
373.301	-14.69
373.43	-6.69
373.559	-4.69
373.688	21.31
373.818	24.31
373.947	21.31
374.076	0.31
374.205	11.31
374.334	4.31
374.463	-20.69
374.593	19.31
374.722	10.31
374.851	15.31
374.98	-9.69
375.109	9.31
375.238	15.31
375.367	44.31
375.496	-16.69
375.625	-21.69
375.755	15.31
375.884	16.31
376.013	9.31
376.142	-12.69
376.271	-1.69
376.4	-2.69
376.529	10.31
376.658	-4.69
376.787	-23.69
376.916	-17.69
377.045	-9.69
377.174	3.31
377.303	8.31
377.432	32.31
377.561	9.31
377.69	10.31
377.819	29.31
377.948	-13.69
378.077	-13.69
378.206	0.31
378.335	-0.69
378.464	1.31
378.593	11.31
378.722	-7.69
378.851	3.31
378.98	24.31
379.108	-17.69
379.237	4.31
379.366	5.31
379.495	20.31
379.624	22.31
379.753	16.31
379.882	-4.69
380.011	-3.69
380.14	-9.69
380.268	1.31
380.397	1.31
380.526	10.31
380.655	4.31
380.784	-11.69
380.913	-8.69
381.041	15.31
381.17	-5.69
381.299	-9.69
381.428	-5.69
381.557	10.31
381.685	7.31
381.814	-5.69
381.943	0.31
382.072	-10.69
382.2	-0.69
382.329	-0.69
382.458	1.31
382.587	20.31
382.715	19.31
382.844	21.31
382.973	3.31
383.102	0.31
383.23	-6.69
383.359	-19.69
383.488	14.31
383.616	7.31
383.745	-20.69
383.874	-9.69
384.003	-9.69
384.131	-13.69
384.26	-11.69
384.389	19.31
384.517	2.31
384.646	8.31
384.774	-5.69
384.903	18.31
385.032	29.31
385.16	15.31
385.289	3.31
385.418	3.31
385.546	6.31
385.675	12.31
385.803	-4.69
385.932	-13.69
386.06	-10.69
386.189	-1.69
386.318	-15.69
386.446	5.31
386.575	20.31
386.703	-3.69
386.832	-2.69
386.96	-13.69
387.089	19.31
387.217	9.31
387.346	-14.69
387.474	6.31
387.603	3.31
387.731	8.31
387.86	9.31
387.988	-5.69
388.117	6.31
388.245	12.31
388.374	-3.69
388.502	13.31
388.631	-5.69
388.759	-5.69
388.888	9.31
389.016	-13.69
389.144	-8.69
389.273	14.31
389.401	9.31
389.53	-10.69
389.658	21.31
389.786	-0.69
389.915	-17.69
390.043	-22.69
390.172	8.31
390.3	22.31
390.428	8.31
390.557	-12.69
390.685	3.31
390.813	24.31
390.942	8.31
391.07	-0.69
391.198	-14.69
391.327	0.31
391.455	-29.69
391.583	12.31
391.712	9.31
391.84	0.31
391.968	-18.69
392.096	4.31
392.225	5.31
392.353	8.31
392.481	-3.69
392.609	10.31
392.738	11.31
392.866	2.31
392.994	-18.69
393.122	18.31
393.251	3.31
393.379	8.31
393.507	-2.69
393.635	-14.69
393.764	14.31
393.892	16.31
394.02	-4.69
394.148	12.31
394.276	5.31
394.404	29.31
394.533	5.31
394.661	31.31
394.789	23.31
394.917	25.31
395.045	-6.69
395.173	-9.69
395.302	4.31
395.43	13.31
395.558	20.31
395.686	9.31
395.814	7.31
395.942	6.31
396.07	11.31
396.198	6.31
396.326	14.31
396.454	23.31
396.582	2.31
396.711	-2.69
396.839	6.31
396.967	18.31
397.095	0.31
397.223	18.31
397.351	20.31
397.479	25.31
397.607	-2.69
397.735	15.31
397.863	4.31
397.991	18.31
398.119	-0.69
398.247	-10.69
398.375	-12.69
398.503	-0.69
398.631	18.31
398.759	9.31
398.887	5.31
399.015	3.31
399.143	-9.69
399.271	7.31
399.399	9.31
399.526	9.31
399.654	10.31
399.782	-3.69
399.91	9.31
400.038	18.31
400.166	1.31
400.294	14.31
400.422	-6.69
400.55	16.31
400.678	6.31
400.805	-8.69
400.933	-4.69
401.061	11.31
401.189	7.31
401.317	22.31
401.445	34.31
401.573	-0.69
401.7	-8.69
401.828	0.31
401.956	0.31
402.084	-3.69
402.212	4.31
402.34	10.31
402.467	-4.69
402.595	-12.69
402.723	-6.69
402.851	40.31
402.978	7.31
403.106	6.31
403.234	17.31
403.362	39.31
403.489	4.31
403.617	16.31
403.745	-2.69
403.873	-14.69
404	7.31
404.128	3.31
404.256	26.31
404.384	30.31
404.511	14.31
404.639	3.31
404.767	-4.69
404.894	2.31
405.022	3.31
405.15	12.31
405.277	-21.69
405.405	7.31
405.533	-11.69
405.66	-7.69
405.788	-35.69
405.916	-14.69
406.043	-26.69
406.171	-1.69
406.299	17.31
406.426	17.31
406.554	2.31
406.681	29.31
406.809	6.31
406.937	-10.69
407.064	-1.69
407.192	16.31
407.319	4.31
407.447	-0.69
407.574	21.31
407.702	6.31
407.83	-4.69
407.957	-3.69
408.085	3.31
408.212	11.31
408.34	4.31
408.467	-13.69
408.595	-13.69
408.722	9.31
408.85	6.31
408.977	3.31
409.105	13.31
409.232	9.31
409.36	9.31
409.487	3.31
409.615	15.31
409.742	26.31
409.87	29.31
409.997	32.31
410.125	30.31
410.252	53.31
410.379	59.31
410.507	35.31
410.634	2.31
410.762	20.31
410.889	19.31
411.017	10.31
411.144	-2.69
411.271	0.31
411.399	-2.69
411.526	25.31
411.653	13.31
411.781	16.31
411.908	5.31
412.036	0.31
412.163	23.31
412.29	24.31
412.418	2.31
412.545	31.31
412.672	-5.69
412.8	32.31
412.927	-9.69
413.054	12.31
413.182	-4.69
413.309	6.31
413.436	-2.69
413.564	8.31
413.691	-5.69
413.818	9.31
413.945	-12.69
414.073	2.31
414.2	9.31
414.327	0.31
414.454	8.31
414.582	0.31
414.709	-6.69
414.836	0.31
414.963	6.31
415.091	-9.69
415.218	3.31
415.345	-7.69
415.472	11.31
415.6	3.31
415.727	16.31
415.854	6.31
415.981	-1.69
416.108	11.31
416.236	-2.69
416.363	5.31
416.49	3.31
416.617	-7.69
416.744	18.31
416.871	6.31
416.998	1.31
417.126	-11.69
417.253	-9.69
417.38	17.31
417.507	-2.69
417.634	6.31
417.761	20.31
417.888	14.31
418.015	10.31
418.143	7.31
418.27	25.31
418.397	14.31
418.524	-2.69
418.651	5.31
418.778	7.31
418.905	29.31
419.032	16.31
419.159	6.31
419.286	41.31
419.413	19.31
419.54	3.31
419.667	-14.69
419.794	-1.69
419.921	20.31
420.048	16.31
420.175	20.31
