Data from LowRes_H2_15_26_11_07_2024_HR4C61881__56__15-28-19-237.txt Node

Date: Thu Nov 07 15:28:19 EST 2024
User: crc00042
Spectrometer: HR4C6188
Trigger mode: 4
Integration Time (sec): 1.000000E-1
Scans to average: 1
Electric dark correction enabled: true
Nonlinearity correction enabled: false
Boxcar width: 0
XAxis mode: Wavelengths
Number of Pixels in Spectrum: 3648
>>>>>Begin Spectral Data<<<<<
245.66	-128.54
245.797	-128.54
245.934	-128.54
246.071	-81.54
246.208	15.46
246.344	-4.54
246.481	-10.54
246.618	-14.54
246.755	17.46
246.892	7.46
247.029	-9.54
247.165	-29.54
247.302	14.46
247.439	16.46
247.576	15.46
247.713	2.46
247.849	16.46
247.986	-21.54
248.123	5.46
248.26	-8.54
248.396	2.46
248.533	-16.54
248.67	-16.54
248.806	-0.54
248.943	-15.54
249.08	-16.54
249.216	17.46
249.353	-24.54
249.49	-11.54
249.626	4.46
249.763	-5.54
249.9	-9.54
250.036	-13.54
250.173	4.46
250.309	-9.54
250.446	-12.54
250.582	-5.54
250.719	-13.54
250.856	-20.54
250.992	-14.54
251.129	-16.54
251.265	-17.54
251.402	-13.54
251.538	-22.54
251.675	-2.54
251.811	0.46
251.948	-1.54
252.084	-2.54
252.221	-15.54
252.357	-18.54
252.493	38.46
252.63	-4.54
252.766	15.46
252.903	11.46
253.039	0.46
253.175	5.46
253.312	19.46
253.448	-0.54
253.585	-27.54
253.721	4.46
253.857	-13.54
253.994	-4.54
254.13	-8.54
254.266	9.46
254.403	9.46
254.539	15.46
254.675	3.46
254.811	-0.54
254.948	5.46
255.084	-6.54
255.22	-1.54
255.356	-25.54
255.493	0.46
255.629	-6.54
255.765	14.46
255.901	2.46
256.037	-1.54
256.174	-5.54
256.31	-17.54
256.446	-8.54
256.582	-19.54
256.718	18.46
256.854	18.46
256.991	15.46
257.127	4.46
257.263	-0.54
257.399	-2.54
257.535	-3.54
257.671	-3.54
257.807	-7.54
257.943	-25.54
258.079	-29.54
258.215	-6.54
258.351	4.46
258.487	1.46
258.623	10.46
258.759	-1.54
258.895	1.46
259.031	-3.54
259.167	-17.54
259.303	23.46
259.439	3.46
259.575	-4.54
259.711	-13.54
259.847	-8.54
259.983	8.46
260.119	-12.54
260.255	-15.54
260.391	4.46
260.527	11.46
260.663	17.46
260.799	23.46
260.934	-2.54
261.07	-6.54
261.206	-17.54
261.342	-29.54
261.478	13.46
261.614	16.46
261.749	14.46
261.885	-2.54
262.021	-15.54
262.157	31.46
262.293	-15.54
262.428	-25.54
262.564	-7.54
262.7	5.46
262.836	-18.54
262.971	-6.54
263.107	-11.54
263.243	2.46
263.378	0.46
263.514	-28.54
263.65	2.46
263.785	-26.54
263.921	-17.54
264.057	-14.54
264.192	-1.54
264.328	-4.54
264.464	-6.54
264.599	-2.54
264.735	14.46
264.871	-12.54
265.006	1.46
265.142	-8.54
265.277	-11.54
265.413	-17.54
265.548	9.46
265.684	15.46
265.819	12.46
265.955	-8.54
266.091	-18.54
266.226	-10.54
266.362	7.46
266.497	16.46
266.633	-0.54
266.768	-2.54
266.903	2.46
267.039	20.46
267.174	22.46
267.31	0.46
267.445	-10.54
267.581	-8.54
267.716	4.46
267.851	9.46
267.987	5.46
268.122	26.46
268.258	0.46
268.393	-7.54
268.528	-4.54
268.664	-5.54
268.799	-11.54
268.934	-0.54
269.07	-17.54
269.205	6.46
269.34	10.46
269.476	0.46
269.611	-26.54
269.746	16.46
269.881	-5.54
270.017	13.46
270.152	1.46
270.287	7.46
270.422	8.46
270.558	-11.54
270.693	5.46
270.828	-12.54
270.963	-18.54
271.098	-24.54
271.234	2.46
271.369	15.46
271.504	-11.54
271.639	-10.54
271.774	-7.54
271.909	-12.54
272.045	-38.54
272.18	-18.54
272.315	-11.54
272.45	-5.54
272.585	-20.54
272.72	-11.54
272.855	-11.54
272.99	0.46
273.125	-26.54
273.26	-12.54
273.395	-6.54
273.53	-5.54
273.665	-4.54
273.8	-10.54
273.935	-5.54
274.07	-16.54
274.205	6.46
274.34	1.46
274.475	-10.54
274.61	7.46
274.745	-27.54
274.88	-4.54
275.015	-11.54
275.15	8.46
275.285	2.46
275.42	-8.54
275.555	9.46
275.69	-13.54
275.825	-27.54
275.959	8.46
276.094	-15.54
276.229	3.46
276.364	-21.54
276.499	-5.54
276.634	-10.54
276.768	-16.54
276.903	-5.54
277.038	12.46
277.173	6.46
277.308	-22.54
277.442	-23.54
277.577	-11.54
277.712	-13.54
277.847	0.46
277.981	-12.54
278.116	-16.54
278.251	0.46
278.386	-5.54
278.52	0.46
278.655	-22.54
278.79	3.46
278.924	-23.54
279.059	-8.54
279.194	-18.54
279.328	4.46
279.463	-3.54
279.598	8.46
279.732	9.46
279.867	7.46
280.001	-2.54
280.136	-6.54
280.271	-4.54
280.405	-4.54
280.54	5.46
280.674	-35.54
280.809	-2.54
280.943	-13.54
281.078	-7.54
281.213	14.46
281.347	1.46
281.482	-2.54
281.616	1.46
281.751	-7.54
281.885	-4.54
282.02	-20.54
282.154	8.46
282.288	-22.54
282.423	-12.54
282.557	-19.54
282.692	-8.54
282.826	-24.54
282.961	-6.54
283.095	-4.54
283.229	-18.54
283.364	-21.54
283.498	-15.54
283.633	2.46
283.767	-18.54
283.901	2.46
284.036	-24.54
284.17	-6.54
284.304	-21.54
284.439	-16.54
284.573	2.46
284.707	2.46
284.842	-22.54
284.976	-10.54
285.11	-20.54
285.244	-2.54
285.379	40.46
285.513	-14.54
285.647	-7.54
285.781	3.46
285.916	4.46
286.05	-15.54
286.184	9.46
286.318	10.46
286.453	-13.54
286.587	-38.54
286.721	-5.54
286.855	-6.54
286.989	2.46
287.123	-14.54
287.258	-30.54
287.392	-16.54
287.526	-10.54
287.66	-15.54
287.794	0.46
287.928	-6.54
288.062	-3.54
288.196	-8.54
288.33	4.46
288.464	9.46
288.598	0.46
288.733	9.46
288.867	7.46
289.001	-20.54
289.135	-0.54
289.269	-23.54
289.403	11.46
289.537	8.46
289.671	14.46
289.805	-18.54
289.939	5.46
290.073	-0.54
290.207	-5.54
290.34	1.46
290.474	11.46
290.608	7.46
290.742	-3.54
290.876	-10.54
291.01	-8.54
291.144	17.46
291.278	-6.54
291.412	-8.54
291.546	-10.54
291.679	-8.54
291.813	0.46
291.947	-11.54
292.081	-11.54
292.215	-16.54
292.349	10.46
292.482	8.46
292.616	-8.54
292.75	-34.54
292.884	-7.54
293.018	-3.54
293.151	-23.54
293.285	-12.54
293.419	-23.54
293.553	-21.54
293.686	-18.54
293.82	-19.54
293.954	17.46
294.088	28.46
294.221	-15.54
294.355	-25.54
294.489	-4.54
294.622	-7.54
294.756	-9.54
294.89	-19.54
295.023	-16.54
295.157	-17.54
295.291	-3.54
295.424	-3.54
295.558	-2.54
295.691	0.46
295.825	-9.54
295.959	-19.54
296.092	-13.54
296.226	4.46
296.359	2.46
296.493	11.46
296.627	-14.54
296.76	-7.54
296.894	-11.54
297.027	5.46
297.161	1.46
297.294	-26.54
297.428	-14.54
297.561	5.46
297.695	-14.54
297.828	-25.54
297.962	-16.54
298.095	-17.54
298.229	-4.54
298.362	-15.54
298.495	-10.54
298.629	-18.54
298.762	-2.54
298.896	-19.54
299.029	-15.54
299.162	-13.54
299.296	8.46
299.429	-18.54
299.563	1.46
299.696	-11.54
299.829	1.46
299.963	3.46
300.096	-12.54
300.229	-11.54
300.363	-19.54
300.496	-7.54
300.629	-33.54
300.763	-19.54
300.896	-14.54
301.029	5.46
301.162	-6.54
301.296	-13.54
301.429	-3.54
301.562	-32.54
301.695	0.46
301.829	-2.54
301.962	8.46
302.095	0.46
302.228	-39.54
302.362	-21.54
302.495	-1.54
302.628	2.46
302.761	9.46
302.894	-2.54
303.027	7.46
303.161	-26.54
303.294	-7.54
303.427	12.46
303.56	10.46
303.693	-20.54
303.826	8.46
303.959	-10.54
304.092	-6.54
304.225	-28.54
304.359	9.46
304.492	-10.54
304.625	-3.54
304.758	-16.54
304.891	-21.54
305.024	-3.54
305.157	-9.54
305.29	-13.54
305.423	-8.54
305.556	11.46
305.689	12.46
305.822	8.46
305.955	2.46
306.088	-12.54
306.221	5.46
306.354	-10.54
306.487	-11.54
306.62	-21.54
306.752	-17.54
306.885	-6.54
307.018	-9.54
307.151	-8.54
307.284	9.46
307.417	-12.54
307.55	-16.54
307.683	-9.54
307.816	17.46
307.948	-2.54
308.081	4.46
308.214	4.46
308.347	21.46
308.48	-6.54
308.613	-11.54
308.745	3.46
308.878	-8.54
309.011	-7.54
309.144	7.46
309.277	-7.54
309.409	6.46
309.542	-7.54
309.675	-5.54
309.808	-10.54
309.94	23.46
310.073	-16.54
310.206	-14.54
310.339	1.46
310.471	-26.54
310.604	-0.54
310.737	-2.54
310.869	-2.54
311.002	-15.54
311.135	-28.54
311.267	-30.54
311.4	-11.54
311.533	17.46
311.665	-16.54
311.798	-0.54
311.93	-11.54
312.063	-15.54
312.196	0.46
312.328	-2.54
312.461	-10.54
312.593	-19.54
312.726	-4.54
312.859	-3.54
312.991	-3.54
313.124	-22.54
313.256	-7.54
313.389	-1.54
313.521	1.46
313.654	-8.54
313.786	-14.54
313.919	-2.54
314.051	2.46
314.184	2.46
314.316	-16.54
314.449	-22.54
314.581	-13.54
314.714	-4.54
314.846	3.46
314.978	-2.54
315.111	-14.54
315.243	-3.54
315.376	9.46
315.508	-1.54
315.641	-15.54
315.773	15.46
315.905	0.46
316.038	-13.54
316.17	-30.54
316.302	10.46
316.435	-27.54
316.567	-14.54
316.699	4.46
316.832	-14.54
316.964	0.46
317.096	-14.54
317.229	-29.54
317.361	-16.54
317.493	-16.54
317.625	-2.54
317.758	-11.54
317.89	13.46
318.022	-10.54
318.155	-11.54
318.287	-10.54
318.419	8.46
318.551	-17.54
318.683	-4.54
318.816	-20.54
318.948	-21.54
319.08	-11.54
319.212	-20.54
319.344	-18.54
319.477	-15.54
319.609	-4.54
319.741	17.46
319.873	-5.54
320.005	-4.54
320.137	5.46
320.269	5.46
320.401	-8.54
320.534	-5.54
320.666	-28.54
320.798	-30.54
320.93	-17.54
321.062	-20.54
321.194	-11.54
321.326	-1.54
321.458	14.46
321.59	-7.54
321.722	-21.54
321.854	1.46
321.986	-3.54
322.118	-5.54
322.25	-22.54
322.382	-8.54
322.514	-3.54
322.646	-5.54
322.778	19.46
322.91	-16.54
323.042	-12.54
323.174	-16.54
323.306	-17.54
323.438	-21.54
323.57	1.46
323.702	-9.54
323.834	-2.54
323.966	-38.54
324.097	-3.54
324.229	2.46
324.361	-0.54
324.493	-7.54
324.625	-14.54
324.757	9.46
324.889	-22.54
325.021	-2.54
325.152	-4.54
325.284	-4.54
325.416	-17.54
325.548	4.46
325.68	-13.54
325.811	14.46
325.943	-4.54
326.075	-19.54
326.207	-6.54
326.339	-11.54
326.47	-3.54
326.602	3.46
326.734	5.46
326.866	1.46
326.997	-24.54
327.129	-7.54
327.261	-24.54
327.392	-23.54
327.524	0.46
327.656	14.46
327.787	17.46
327.919	5.46
328.051	-3.54
328.182	6.46
328.314	13.46
328.446	7.46
328.577	11.46
328.709	9.46
328.841	-19.54
328.972	0.46
329.104	-5.54
329.235	4.46
329.367	-9.54
329.499	2.46
329.63	-4.54
329.762	-6.54
329.893	7.46
330.025	-22.54
330.156	-14.54
330.288	-1.54
330.419	7.46
330.551	9.46
330.683	8.46
330.814	-9.54
330.946	1.46
331.077	-14.54
331.208	-16.54
331.34	-5.54
331.471	-13.54
331.603	-0.54
331.734	-5.54
331.866	18.46
331.997	3.46
332.129	-1.54
332.26	-4.54
332.392	24.46
332.523	-6.54
332.654	1.46
332.786	2.46
332.917	-12.54
333.048	-9.54
333.18	2.46
333.311	-11.54
333.443	-4.54
333.574	-13.54
333.705	5.46
333.837	-9.54
333.968	-14.54
334.099	16.46
334.231	11.46
334.362	-15.54
334.493	-0.54
334.624	2.46
334.756	14.46
334.887	-5.54
335.018	-2.54
335.15	1.46
335.281	-25.54
335.412	12.46
335.543	-8.54
335.675	-16.54
335.806	-4.54
335.937	-2.54
336.068	7.46
336.199	29.46
336.331	-26.54
336.462	-7.54
336.593	13.46
336.724	-4.54
336.855	-3.54
336.986	6.46
337.118	2.46
337.249	-0.54
337.38	-7.54
337.511	-15.54
337.642	-10.54
337.773	-12.54
337.904	12.46
338.035	1.46
338.166	8.46
338.298	-2.54
338.429	-22.54
338.56	11.46
338.691	4.46
338.822	-9.54
338.953	3.46
339.084	6.46
339.215	0.46
339.346	9.46
339.477	-5.54
339.608	-14.54
339.739	-6.54
339.87	-7.54
340.001	-17.54
340.132	-1.54
340.263	4.46
340.394	-1.54
340.525	-3.54
340.656	-13.54
340.787	-14.54
340.918	21.46
341.049	11.46
341.179	6.46
341.31	2.46
341.441	0.46
341.572	9.46
341.703	0.46
341.834	-16.54
341.965	3.46
342.096	-7.54
342.227	6.46
342.357	0.46
342.488	-5.54
342.619	3.46
342.75	8.46
342.881	-14.54
343.012	3.46
343.142	19.46
343.273	-14.54
343.404	6.46
343.535	35.46
343.666	4.46
343.796	-6.54
343.927	-5.54
344.058	36.46
344.189	9.46
344.319	12.46
344.45	-4.54
344.581	-6.54
344.712	-9.54
344.842	-9.54
344.973	-12.54
345.104	8.46
345.234	0.46
345.365	-14.54
345.496	-19.54
345.626	13.46
345.757	-3.54
345.888	-4.54
346.018	-12.54
346.149	-12.54
346.28	10.46
346.41	-2.54
346.541	-7.54
346.672	-5.54
346.802	11.46
346.933	6.46
347.063	0.46
347.194	-5.54
347.325	12.46
347.455	13.46
347.586	10.46
347.716	-16.54
347.847	-6.54
347.977	-6.54
348.108	-0.54
348.238	-10.54
348.369	-3.54
348.499	-5.54
348.63	-6.54
348.76	-2.54
348.891	19.46
349.021	18.46
349.152	-0.54
349.282	-6.54
349.413	-19.54
349.543	10.46
349.674	-16.54
349.804	9.46
349.935	-4.54
350.065	3.46
350.196	-13.54
350.326	1.46
350.456	8.46
350.587	19.46
350.717	6.46
350.848	5.46
350.978	-11.54
351.108	-26.54
351.239	1.46
351.369	-14.54
351.499	-11.54
351.63	7.46
351.76	-14.54
351.89	2.46
352.021	-1.54
352.151	-10.54
352.281	8.46
352.412	-0.54
352.542	3.46
352.672	1.46
352.803	3.46
352.933	-1.54
353.063	3.46
353.193	8.46
353.324	-3.54
353.454	-4.54
353.584	1.46
353.714	-10.54
353.845	-11.54
353.975	-10.54
354.105	3.46
354.235	-4.54
354.365	-12.54
354.496	2.46
354.626	3.46
354.756	13.46
354.886	11.46
355.016	19.46
355.146	-0.54
355.277	-3.54
355.407	-12.54
355.537	-8.54
355.667	5.46
355.797	-14.54
355.927	-7.54
356.057	-1.54
356.187	-16.54
356.318	-14.54
356.448	-4.54
356.578	-4.54
356.708	1.46
356.838	21.46
356.968	0.46
357.098	-3.54
357.228	23.46
357.358	-8.54
357.488	-17.54
357.618	14.46
357.748	27.46
357.878	-3.54
358.008	-3.54
358.138	-11.54
358.268	-1.54
358.398	3.46
358.528	-21.54
358.658	-6.54
358.788	-13.54
358.918	7.46
359.048	-6.54
359.178	1.46
359.308	-2.54
359.438	11.46
359.568	11.46
359.698	-3.54
359.827	-27.54
359.957	-1.54
360.087	-4.54
360.217	-6.54
360.347	1.46
360.477	2.46
360.607	-7.54
360.737	7.46
360.866	-17.54
360.996	-23.54
361.126	-21.54
361.256	13.46
361.386	13.46
361.516	5.46
361.645	-29.54
361.775	3.46
361.905	-12.54
362.035	-9.54
362.165	-6.54
362.294	-6.54
362.424	21.46
362.554	0.46
362.684	-22.54
362.813	-2.54
362.943	1.46
363.073	-3.54
363.203	7.46
363.332	2.46
363.462	-11.54
363.592	-11.54
363.721	-17.54
363.851	-26.54
363.981	-2.54
364.111	-5.54
364.24	-30.54
364.37	4.46
364.5	9.46
364.629	-1.54
364.759	-18.54
364.888	-15.54
365.018	-0.54
365.148	-12.54
365.277	0.46
365.407	-8.54
365.537	1.46
365.666	4.46
365.796	-0.54
365.925	1.46
366.055	5.46
366.184	-3.54
366.314	4.46
366.444	15.46
366.573	3.46
366.703	-3.54
366.832	11.46
366.962	-4.54
367.091	19.46
367.221	-16.54
367.35	6.46
367.48	21.46
367.609	-5.54
367.739	1.46
367.868	-12.54
367.998	-13.54
368.127	3.46
368.257	16.46
368.386	15.46
368.516	17.46
368.645	5.46
368.775	18.46
368.904	10.46
369.033	-11.54
369.163	-18.54
369.292	3.46
369.422	4.46
369.551	1.46
369.68	21.46
369.81	-6.54
369.939	-9.54
370.069	10.46
370.198	5.46
370.327	-12.54
370.457	-2.54
370.586	1.46
370.715	-19.54
370.845	-24.54
370.974	2.46
371.103	13.46
371.233	8.46
371.362	0.46
371.491	-9.54
371.621	2.46
371.75	-16.54
371.879	-20.54
372.008	6.46
372.138	-2.54
372.267	4.46
372.396	-1.54
372.525	-11.54
372.655	1.46
372.784	4.46
372.913	15.46
373.042	21.46
373.172	7.46
373.301	-13.54
373.43	-4.54
373.559	7.46
373.688	1.46
373.818	1.46
373.947	19.46
374.076	4.46
374.205	6.46
374.334	-7.54
374.463	-11.54
374.593	-11.54
374.722	4.46
374.851	18.46
374.98	-0.54
375.109	-2.54
375.238	3.46
375.367	27.46
375.496	-14.54
375.625	-20.54
375.755	13.46
375.884	31.46
376.013	7.46
376.142	-11.54
376.271	-19.54
376.4	6.46
376.529	12.46
376.658	11.46
376.787	2.46
376.916	-6.54
377.045	-13.54
377.174	-8.54
377.303	-10.54
377.432	20.46
377.561	-4.54
377.69	-7.54
377.819	15.46
377.948	2.46
378.077	-20.54
378.206	-29.54
378.335	-4.54
378.464	9.46
378.593	23.46
378.722	-18.54
378.851	0.46
378.98	12.46
379.108	-14.54
379.237	-24.54
379.366	3.46
379.495	7.46
379.624	-8.54
379.753	1.46
379.882	11.46
380.011	-10.54
380.14	-12.54
380.268	-10.54
380.397	-0.54
380.526	13.46
380.655	-19.54
380.784	-26.54
380.913	-18.54
381.041	2.46
381.17	-17.54
381.299	-2.54
381.428	19.46
381.557	5.46
381.685	-3.54
381.814	3.46
381.943	9.46
382.072	-5.54
382.2	-21.54
382.329	1.46
382.458	-2.54
382.587	15.46
382.715	18.46
382.844	3.46
382.973	9.46
383.102	-3.54
383.23	3.46
383.359	-12.54
383.488	3.46
383.616	-23.54
383.745	-8.54
383.874	-2.54
384.003	-11.54
384.131	-14.54
384.26	-2.54
384.389	11.46
384.517	-13.54
384.646	-18.54
384.774	-0.54
384.903	15.46
385.032	-1.54
385.16	-2.54
385.289	-17.54
385.418	-24.54
385.546	-0.54
385.675	3.46
385.803	-11.54
385.932	2.46
386.06	-2.54
386.189	-14.54
386.318	5.46
386.446	-15.54
386.575	-8.54
386.703	3.46
386.832	-5.54
386.96	-32.54
387.089	13.46
387.217	-1.54
387.346	-6.54
387.474	-7.54
387.603	3.46
387.731	-0.54
387.86	5.46
387.988	12.46
388.117	4.46
388.245	16.46
388.374	-16.54
388.502	-4.54
388.631	-26.54
388.759	0.46
388.888	-2.54
389.016	-20.54
389.144	-7.54
389.273	-6.54
389.401	-19.54
389.53	-23.54
389.658	-1.54
389.786	-25.54
389.915	-33.54
390.043	-19.54
390.172	3.46
390.3	-5.54
390.428	0.46
390.557	13.46
390.685	2.46
390.813	-5.54
390.942	-14.54
391.07	8.46
391.198	0.46
391.327	-16.54
391.455	4.46
391.583	13.46
391.712	-2.54
391.84	-15.54
391.968	-21.54
392.096	-9.54
392.225	-3.54
392.353	8.46
392.481	-11.54
392.609	9.46
392.738	-5.54
392.866	-10.54
392.994	-12.54
393.122	14.46
393.251	-4.54
393.379	-6.54
393.507	-25.54
393.635	-9.54
393.764	9.46
393.892	1.46
394.02	-18.54
394.148	-21.54
394.276	-7.54
394.404	23.46
394.533	-12.54
394.661	-8.54
394.789	11.46
394.917	-9.54
395.045	-26.54
395.173	-7.54
395.302	-6.54
395.43	3.46
395.558	1.46
395.686	20.46
395.814	11.46
395.942	-9.54
396.07	-6.54
396.198	6.46
396.326	37.46
396.454	22.46
396.582	3.46
396.711	17.46
396.839	-14.54
396.967	-19.54
397.095	-1.54
397.223	16.46
397.351	18.46
397.479	7.46
397.607	-14.54
397.735	9.46
397.863	10.46
397.991	-0.54
398.119	-16.54
398.247	-1.54
398.375	-13.54
398.503	-17.54
398.631	10.46
398.759	-8.54
398.887	-4.54
399.015	5.46
399.143	9.46
399.271	-0.54
399.399	12.46
399.526	10.46
399.654	10.46
399.782	-7.54
399.91	23.46
400.038	9.46
400.166	0.46
400.294	0.46
400.422	-1.54
400.55	8.46
400.678	-1.54
400.805	6.46
400.933	4.46
401.061	6.46
401.189	-5.54
401.317	33.46
401.445	24.46
401.573	14.46
401.7	0.46
401.828	-6.54
401.956	7.46
402.084	7.46
402.212	7.46
402.34	1.46
402.467	-18.54
402.595	4.46
402.723	-20.54
402.851	16.46
402.978	-7.54
403.106	19.46
403.234	8.46
403.362	18.46
403.489	13.46
403.617	4.46
403.745	-1.54
403.873	-11.54
404	9.46
404.128	9.46
404.256	-18.54
404.384	24.46
404.511	9.46
404.639	-2.54
404.767	-0.54
404.894	-13.54
405.022	5.46
405.15	15.46
405.277	-10.54
405.405	-14.54
405.533	0.46
405.66	-18.54
405.788	-14.54
405.916	-6.54
406.043	-11.54
406.171	-39.54
406.299	0.46
406.426	11.46
406.554	12.46
406.681	13.46
406.809	9.46
406.937	-5.54
407.064	11.46
407.192	15.46
407.319	12.46
407.447	-7.54
407.574	2.46
407.702	3.46
407.83	0.46
407.957	-22.54
408.085	-7.54
408.212	-16.54
408.34	-5.54
408.467	-5.54
408.595	-8.54
408.722	-10.54
408.85	17.46
408.977	-30.54
409.105	-8.54
409.232	-9.54
409.36	-1.54
409.487	9.46
409.615	9.46
409.742	17.46
409.87	12.46
409.997	50.46
410.125	45.46
410.252	34.46
410.379	34.46
410.507	39.46
410.634	5.46
410.762	-8.54
410.889	4.46
411.017	-8.54
411.144	9.46
411.271	1.46
411.399	-5.54
411.526	-1.54
411.653	6.46
411.781	31.46
411.908	9.46
412.036	-0.54
412.163	19.46
412.29	15.46
412.418	3.46
412.545	4.46
412.672	-18.54
412.8	32.46
412.927	-0.54
413.054	2.46
413.182	10.46
413.309	5.46
413.436	-7.54
413.564	-14.54
413.691	-9.54
413.818	15.46
413.945	-12.54
414.073	9.46
414.2	5.46
414.327	6.46
414.454	-6.54
414.582	0.46
414.709	-4.54
414.836	-6.54
414.963	5.46
415.091	8.46
415.218	0.46
415.345	-8.54
415.472	-11.54
415.6	-16.54
415.727	16.46
415.854	7.46
415.981	-1.54
416.108	3.46
416.236	20.46
416.363	10.46
416.49	-7.54
416.617	-7.54
416.744	6.46
416.871	-4.54
416.998	-6.54
417.126	5.46
417.253	-16.54
417.38	-0.54
417.507	-4.54
417.634	-6.54
417.761	-8.54
417.888	-3.54
