Data from LowRes_H2_15_26_11_07_2024_HR4C61881__53__15-28-18-937.txt Node

Date: Thu Nov 07 15:28:18 EST 2024
User: crc00042
Spectrometer: HR4C6188
Trigger mode: 4
Integration Time (sec): 1.000000E-1
Scans to average: 1
Electric dark correction enabled: true
Nonlinearity correction enabled: false
Boxcar width: 0
XAxis mode: Wavelengths
Number of Pixels in Spectrum: 3648
>>>>>Begin Spectral Data<<<<<
245.66	-112.15
245.797	-112.15
245.934	-112.15
246.071	-74.15
246.208	-10.15
246.344	8.85
246.481	-17.15
246.618	-10.15
246.755	-0.15
246.892	6.85
247.029	-4.15
247.165	-14.15
247.302	14.85
247.439	-2.15
247.576	-2.15
247.713	-21.15
247.849	21.85
247.986	18.85
248.123	13.85
248.26	11.85
248.396	0.85
248.533	-10.15
248.67	-15.15
248.806	6.85
248.943	-13.15
249.08	10.85
249.216	13.85
249.353	-14.15
249.49	-22.15
249.626	-6.15
249.763	6.85
249.9	-1.15
250.036	-2.15
250.173	2.85
250.309	-3.15
250.446	4.85
250.582	1.85
250.719	-21.15
250.856	-9.15
250.992	-16.15
251.129	-12.15
251.265	-11.15
251.402	-4.15
251.538	5.85
251.675	-19.15
251.811	17.85
251.948	18.85
252.084	10.85
252.221	-22.15
252.357	-11.15
252.493	28.85
252.63	-6.15
252.766	3.85
252.903	-14.15
253.039	-13.15
253.175	-1.15
253.312	4.85
253.448	2.85
253.585	-6.15
253.721	-9.15
253.857	-11.15
253.994	17.85
254.13	-5.15
254.266	6.85
254.403	-18.15
254.539	-16.15
254.675	-2.15
254.811	7.85
254.948	0.85
255.084	-3.15
255.22	-4.15
255.356	-14.15
255.493	-6.15
255.629	5.85
255.765	12.85
255.901	17.85
256.037	-5.15
256.174	-10.15
256.31	-11.15
256.446	1.85
256.582	-1.15
256.718	9.85
256.854	-1.15
256.991	6.85
257.127	16.85
257.263	-16.15
257.399	-13.15
257.535	-13.15
257.671	-2.15
257.807	-13.15
257.943	-15.15
258.079	-16.15
258.215	-3.15
258.351	3.85
258.487	0.85
258.623	10.85
258.759	-6.15
258.895	-11.15
259.031	-15.15
259.167	-16.15
259.303	9.85
259.439	-19.15
259.575	-13.15
259.711	-0.15
259.847	-9.15
259.983	-4.15
260.119	-1.15
260.255	0.85
260.391	-0.15
260.527	18.85
260.663	9.85
260.799	-5.15
260.934	-13.15
261.07	-7.15
261.206	-12.15
261.342	-15.15
261.478	4.85
261.614	15.85
261.749	-9.15
261.885	-6.15
262.021	9.85
262.157	16.85
262.293	-14.15
262.428	-8.15
262.564	-3.15
262.7	15.85
262.836	-2.15
262.971	20.85
263.107	6.85
263.243	10.85
263.378	5.85
263.514	-35.15
263.65	-1.15
263.785	-12.15
263.921	-7.15
264.057	-9.15
264.192	5.85
264.328	11.85
264.464	-11.15
264.599	9.85
264.735	20.85
264.871	-9.15
265.006	1.85
265.142	-10.15
265.277	-15.15
265.413	10.85
265.548	15.85
265.684	27.85
265.819	19.85
265.955	-26.15
266.091	-20.15
266.226	-11.15
266.362	-11.15
266.497	-6.15
266.633	3.85
266.768	-6.15
266.903	25.85
267.039	14.85
267.174	19.85
267.31	3.85
267.445	-5.15
267.581	-8.15
267.716	16.85
267.851	19.85
267.987	-1.15
268.122	19.85
268.258	0.85
268.393	-11.15
268.528	20.85
268.664	-18.15
268.799	-8.15
268.934	3.85
269.07	-7.15
269.205	-10.15
269.34	15.85
269.476	7.85
269.611	-10.15
269.746	19.85
269.881	0.85
270.017	15.85
270.152	9.85
270.287	16.85
270.422	-6.15
270.558	-20.15
270.693	11.85
270.828	2.85
270.963	-11.15
271.098	-11.15
271.234	-26.15
271.369	5.85
271.504	11.85
271.639	-13.15
271.774	-9.15
271.909	2.85
272.045	-28.15
272.18	-7.15
272.315	-7.15
272.45	17.85
272.585	-15.15
272.72	-3.15
272.855	-3.15
272.99	11.85
273.125	-7.15
273.26	-24.15
273.395	-6.15
273.53	-10.15
273.665	22.85
273.8	-7.15
273.935	5.85
274.07	-0.15
274.205	-6.15
274.34	-7.15
274.475	6.85
274.61	16.85
274.745	-14.15
274.88	14.85
275.015	-5.15
275.15	20.85
275.285	6.85
275.42	-0.15
275.555	6.85
275.69	4.85
275.825	-9.15
275.959	6.85
276.094	11.85
276.229	-1.15
276.364	-22.15
276.499	-3.15
276.634	0.85
276.768	2.85
276.903	-4.15
277.038	11.85
277.173	2.85
277.308	-13.15
277.442	-3.15
277.577	0.85
277.712	-2.15
277.847	10.85
277.981	19.85
278.116	-24.15
278.251	-2.15
278.386	17.85
278.52	0.85
278.655	11.85
278.79	9.85
278.924	3.85
279.059	-1.15
279.194	-11.15
279.328	41.85
279.463	-3.15
279.598	18.85
279.732	5.85
279.867	11.85
280.001	2.85
280.136	-6.15
280.271	13.85
280.405	8.85
280.54	4.85
280.674	-10.15
280.809	39.85
280.943	-7.15
281.078	-3.15
281.213	10.85
281.347	13.85
281.482	9.85
281.616	9.85
281.751	-8.15
281.885	-5.15
282.02	5.85
282.154	11.85
282.288	-5.15
282.423	-16.15
282.557	-15.15
282.692	10.85
282.826	15.85
282.961	-2.15
283.095	16.85
283.229	11.85
283.364	4.85
283.498	9.85
283.633	7.85
283.767	7.85
283.901	14.85
284.036	1.85
284.17	-14.15
284.304	-17.15
284.439	-15.15
284.573	-2.15
284.707	17.85
284.842	6.85
284.976	-1.15
285.11	-23.15
285.244	10.85
285.379	55.85
285.513	-1.15
285.647	1.85
285.781	-11.15
285.916	18.85
286.05	-5.15
286.184	28.85
286.318	16.85
286.453	-16.15
286.587	-17.15
286.721	-17.15
286.855	10.85
286.989	19.85
287.123	2.85
287.258	-21.15
287.392	-6.15
287.526	-5.15
287.66	3.85
287.794	-4.15
287.928	10.85
288.062	-2.15
288.196	-12.15
288.33	13.85
288.464	14.85
288.598	5.85
288.733	4.85
288.867	12.85
289.001	4.85
289.135	6.85
289.269	-5.15
289.403	2.85
289.537	5.85
289.671	0.85
289.805	-13.15
289.939	7.85
290.073	-8.15
290.207	20.85
290.34	1.85
290.474	27.85
290.608	6.85
290.742	-8.15
290.876	-9.15
291.01	-15.15
291.144	11.85
291.278	24.85
291.412	11.85
291.546	14.85
291.679	13.85
291.813	-4.15
291.947	13.85
292.081	6.85
292.215	-1.15
292.349	2.85
292.482	3.85
292.616	-9.15
292.75	-6.15
292.884	0.85
293.018	-6.15
293.151	-21.15
293.285	-5.15
293.419	-10.15
293.553	-16.15
293.686	-16.15
293.82	9.85
293.954	4.85
294.088	0.85
294.221	3.85
294.355	-8.15
294.489	-5.15
294.622	2.85
294.756	11.85
294.89	16.85
295.023	0.85
295.157	11.85
295.291	2.85
295.424	12.85
295.558	-1.15
295.691	-14.15
295.825	-20.15
295.959	13.85
296.092	-14.15
296.226	-7.15
296.359	-2.15
296.493	14.85
296.627	-21.15
296.76	0.85
296.894	9.85
297.027	-14.15
297.161	2.85
297.294	-33.15
297.428	4.85
297.561	12.85
297.695	-1.15
297.828	5.85
297.962	-8.15
298.095	10.85
298.229	5.85
298.362	-4.15
298.495	-3.15
298.629	-14.15
298.762	-13.15
298.896	17.85
299.029	-14.15
299.162	3.85
299.296	-13.15
299.429	-3.15
299.563	11.85
299.696	4.85
299.829	1.85
299.963	14.85
300.096	19.85
300.229	5.85
300.363	-4.15
300.496	7.85
300.629	-32.15
300.763	-8.15
300.896	0.85
301.029	-9.15
301.162	-7.15
301.296	-6.15
301.429	-12.15
301.562	-21.15
301.695	4.85
301.829	-6.15
301.962	-6.15
302.095	-0.15
302.228	-8.15
302.362	6.85
302.495	-4.15
302.628	8.85
302.761	10.85
302.894	-11.15
303.027	6.85
303.161	-2.15
303.294	-4.15
303.427	11.85
303.56	7.85
303.693	9.85
303.826	1.85
303.959	-2.15
304.092	2.85
304.225	-5.15
304.359	2.85
304.492	6.85
304.625	-4.15
304.758	19.85
304.891	-16.15
305.024	-4.15
305.157	-11.15
305.29	-9.15
305.423	1.85
305.556	10.85
305.689	5.85
305.822	-1.15
305.955	-3.15
306.088	-4.15
306.221	-20.15
306.354	8.85
306.487	2.85
306.62	-14.15
306.752	-4.15
306.885	-6.15
307.018	-9.15
307.151	0.85
307.284	10.85
307.417	-6.15
307.55	27.85
307.683	0.85
307.816	2.85
307.948	12.85
308.081	1.85
308.214	5.85
308.347	20.85
308.48	-10.15
308.613	-28.15
308.745	4.85
308.878	-13.15
309.011	-6.15
309.144	3.85
309.277	-1.15
309.409	3.85
309.542	1.85
309.675	34.85
309.808	11.85
309.94	16.85
310.073	-14.15
310.206	-11.15
310.339	20.85
310.471	-4.15
310.604	14.85
310.737	-13.15
310.869	-0.15
311.002	-12.15
311.135	-7.15
311.267	-25.15
311.4	2.85
311.533	4.85
311.665	0.85
311.798	-16.15
311.93	-1.15
312.063	3.85
312.196	0.85
312.328	15.85
312.461	2.85
312.593	0.85
312.726	-3.15
312.859	7.85
312.991	23.85
313.124	-13.15
313.256	-3.15
313.389	8.85
313.521	2.85
313.654	-6.15
313.786	-15.15
313.919	7.85
314.051	-11.15
314.184	-8.15
314.316	-9.15
314.449	-16.15
314.581	-8.15
314.714	7.85
314.846	17.85
314.978	-14.15
315.111	8.85
315.243	15.85
315.376	-2.15
315.508	12.85
315.641	15.85
315.773	23.85
315.905	20.85
316.038	-14.15
316.17	6.85
316.302	16.85
316.435	-13.15
316.567	3.85
316.699	21.85
316.832	-21.15
316.964	-5.15
317.096	-0.15
317.229	-10.15
317.361	-24.15
317.493	14.85
317.625	-8.15
317.758	12.85
317.89	9.85
318.022	5.85
318.155	-17.15
318.287	20.85
318.419	8.85
318.551	7.85
318.683	17.85
318.816	5.85
318.948	-6.15
319.08	-5.15
319.212	-5.15
319.344	-0.15
319.477	-6.15
319.609	12.85
319.741	31.85
319.873	-1.15
320.005	-5.15
320.137	1.85
320.269	0.85
320.401	3.85
320.534	-6.15
320.666	-0.15
320.798	-2.15
320.93	-19.15
321.062	-10.15
321.194	-16.15
321.326	3.85
321.458	-7.15
321.59	-5.15
321.722	-21.15
321.854	0.85
321.986	6.85
322.118	8.85
322.25	-3.15
322.382	-19.15
322.514	-8.15
322.646	-11.15
322.778	7.85
322.91	3.85
323.042	-7.15
323.174	4.85
323.306	-7.15
323.438	-26.15
323.57	14.85
323.702	-9.15
323.834	-3.15
323.966	-13.15
324.097	-5.15
324.229	4.85
324.361	10.85
324.493	-3.15
324.625	-7.15
324.757	-4.15
324.889	-12.15
325.021	4.85
325.152	7.85
325.284	18.85
325.416	7.85
325.548	16.85
325.68	7.85
325.811	18.85
325.943	8.85
326.075	-3.15
326.207	-4.15
326.339	-2.15
326.47	-6.15
326.602	0.85
326.734	-15.15
326.866	1.85
326.997	-14.15
327.129	-8.15
327.261	-20.15
327.392	4.85
327.524	15.85
327.656	-7.15
327.787	10.85
327.919	-0.15
328.051	-5.15
328.182	14.85
328.314	27.85
328.446	0.85
328.577	23.85
328.709	3.85
328.841	-11.15
328.972	-10.15
329.104	-0.15
329.235	5.85
329.367	-20.15
329.499	-8.15
329.63	2.85
329.762	-4.15
329.893	8.85
330.025	1.85
330.156	-10.15
330.288	23.85
330.419	14.85
330.551	-4.15
330.683	10.85
330.814	15.85
330.946	20.85
331.077	-10.15
331.208	11.85
331.34	-1.15
331.471	-13.15
331.603	6.85
331.734	-11.15
331.866	14.85
331.997	12.85
332.129	-1.15
332.26	0.85
332.392	8.85
332.523	-10.15
332.654	-19.15
332.786	-8.15
332.917	-5.15
333.048	11.85
333.18	22.85
333.311	-5.15
333.443	-14.15
333.574	0.85
333.705	28.85
333.837	16.85
333.968	-2.15
334.099	16.85
334.231	15.85
334.362	-13.15
334.493	9.85
334.624	13.85
334.756	-3.15
334.887	-0.15
335.018	16.85
335.15	26.85
335.281	18.85
335.412	5.85
335.543	9.85
335.675	1.85
335.806	-14.15
335.937	-15.15
336.068	5.85
336.199	23.85
336.331	-0.15
336.462	-0.15
336.593	20.85
336.724	-1.15
336.855	-14.15
336.986	-11.15
337.118	6.85
337.249	8.85
337.38	-24.15
337.511	7.85
337.642	10.85
337.773	1.85
337.904	10.85
338.035	1.85
338.166	8.85
338.298	20.85
338.429	1.85
338.56	4.85
338.691	14.85
338.822	7.85
338.953	4.85
339.084	16.85
339.215	20.85
339.346	-0.15
339.477	1.85
339.608	4.85
339.739	-8.15
339.87	-22.15
340.001	-7.15
340.132	5.85
340.263	5.85
340.394	22.85
340.525	15.85
340.656	-15.15
340.787	-19.15
340.918	17.85
341.049	8.85
341.179	7.85
341.31	-8.15
341.441	-2.15
341.572	4.85
341.703	17.85
341.834	-7.15
341.965	9.85
342.096	-18.15
342.227	6.85
342.357	6.85
342.488	-3.15
342.619	5.85
342.75	8.85
342.881	-1.15
343.012	11.85
343.142	28.85
343.273	-11.15
343.404	16.85
343.535	43.85
343.666	26.85
343.796	8.85
343.927	7.85
344.058	31.85
344.189	-0.15
344.319	18.85
344.45	6.85
344.581	7.85
344.712	0.85
344.842	0.85
344.973	4.85
345.104	9.85
345.234	-3.15
345.365	-10.15
345.496	22.85
345.626	9.85
345.757	14.85
345.888	-6.15
346.018	7.85
346.149	6.85
346.28	13.85
346.41	-20.15
346.541	7.85
346.672	-1.15
346.802	-7.15
346.933	8.85
347.063	8.85
347.194	7.85
347.325	22.85
347.455	18.85
347.586	-0.15
347.716	0.85
347.847	-9.15
347.977	-6.15
348.108	-5.15
348.238	-14.15
348.369	12.85
348.499	-0.15
348.63	4.85
348.76	-10.15
348.891	15.85
349.021	-4.15
349.152	-0.15
349.282	17.85
349.413	6.85
349.543	21.85
349.674	13.85
349.804	16.85
349.935	3.85
350.065	-1.15
350.196	-17.15
350.326	-6.15
350.456	-13.15
350.587	5.85
350.717	-9.15
350.848	9.85
350.978	-5.15
351.108	-18.15
351.239	4.85
351.369	2.85
351.499	-2.15
351.63	14.85
351.76	14.85
351.89	-6.15
352.021	18.85
352.151	-11.15
352.281	10.85
352.412	9.85
352.542	2.85
352.672	8.85
352.803	-6.15
352.933	21.85
353.063	18.85
353.193	6.85
353.324	1.85
353.454	10.85
353.584	0.85
353.714	-14.15
353.845	7.85
353.975	-9.15
354.105	2.85
354.235	3.85
354.365	1.85
354.496	-4.15
354.626	14.85
354.756	15.85
354.886	0.85
355.016	2.85
355.146	0.85
355.277	12.85
355.407	-9.15
355.537	5.85
355.667	9.85
355.797	1.85
355.927	-7.15
356.057	6.85
356.187	-6.15
356.318	6.85
356.448	1.85
356.578	13.85
356.708	13.85
356.838	0.85
356.968	18.85
357.098	7.85
357.228	18.85
357.358	-15.15
357.488	-12.15
357.618	29.85
357.748	1.85
357.878	12.85
358.008	-4.15
358.138	-1.15
358.268	4.85
358.398	21.85
358.528	-20.15
358.658	1.85
358.788	-4.15
358.918	11.85
359.048	18.85
359.178	19.85
359.308	-1.15
359.438	11.85
359.568	17.85
359.698	9.85
359.827	-3.15
359.957	-3.15
360.087	2.85
360.217	-10.15
360.347	11.85
360.477	-2.15
360.607	-4.15
360.737	-1.15
360.866	0.85
360.996	-20.15
361.126	-15.15
361.256	32.85
361.386	25.85
361.516	17.85
361.645	-0.15
361.775	22.85
361.905	-4.15
362.035	16.85
362.165	4.85
362.294	22.85
362.424	12.85
362.554	19.85
362.684	-15.15
362.813	-7.15
362.943	12.85
363.073	10.85
363.203	2.85
363.332	9.85
363.462	3.85
363.592	-13.15
363.721	-15.15
363.851	14.85
363.981	19.85
364.111	7.85
364.24	4.85
364.37	8.85
364.5	15.85
364.629	19.85
364.759	-8.15
364.888	-13.15
365.018	12.85
365.148	-6.15
365.277	-0.15
365.407	0.85
365.537	11.85
365.666	-4.15
365.796	-23.15
365.925	6.85
366.055	13.85
366.184	3.85
366.314	7.85
366.444	16.85
366.573	3.85
366.703	8.85
366.832	15.85
366.962	-2.15
367.091	9.85
367.221	13.85
367.35	9.85
367.48	25.85
367.609	6.85
367.739	4.85
367.868	9.85
367.998	8.85
368.127	11.85
368.257	10.85
368.386	23.85
368.516	16.85
368.645	5.85
368.775	17.85
368.904	6.85
369.033	4.85
369.163	-12.15
369.292	15.85
369.422	17.85
369.551	-0.15
369.68	20.85
369.81	12.85
369.939	2.85
370.069	21.85
370.198	9.85
370.327	-9.15
370.457	-7.15
370.586	6.85
370.715	5.85
370.845	-3.15
370.974	-14.15
371.103	11.85
371.233	4.85
371.362	-0.15
371.491	-9.15
371.621	6.85
371.75	1.85
371.879	-13.15
372.008	-3.15
372.138	24.85
372.267	28.85
372.396	8.85
372.525	-1.15
372.655	-3.15
372.784	18.85
372.913	12.85
373.042	16.85
373.172	3.85
373.301	-2.15
373.43	-15.15
373.559	-7.15
373.688	19.85
373.818	11.85
373.947	9.85
374.076	-3.15
374.205	24.85
374.334	4.85
374.463	-14.15
374.593	7.85
374.722	-6.15
374.851	4.85
374.98	-3.15
375.109	8.85
375.238	2.85
375.367	21.85
375.496	-22.15
375.625	-1.15
375.755	22.85
375.884	33.85
376.013	30.85
376.142	-11.15
376.271	-16.15
376.4	6.85
376.529	-3.15
376.658	19.85
376.787	20.85
376.916	7.85
377.045	-10.15
377.174	2.85
377.303	17.85
377.432	9.85
377.561	14.85
377.69	-1.15
377.819	-2.15
377.948	10.85
378.077	-6.15
378.206	-11.15
378.335	3.85
378.464	2.85
378.593	24.85
378.722	-18.15
378.851	-6.15
378.98	31.85
379.108	2.85
379.237	-6.15
379.366	12.85
379.495	-4.15
379.624	9.85
379.753	12.85
379.882	-5.15
380.011	-8.15
380.14	-6.15
380.268	2.85
380.397	23.85
380.526	26.85
380.655	-25.15
380.784	-11.15
380.913	-10.15
381.041	-4.15
381.17	-16.15
381.299	-1.15
381.428	-8.15
381.557	-2.15
381.685	-10.15
381.814	15.85
381.943	6.85
382.072	-17.15
382.2	-11.15
382.329	-10.15
382.458	-18.15
382.587	10.85
382.715	25.85
382.844	33.85
382.973	-3.15
383.102	0.85
383.23	0.85
383.359	2.85
383.488	-1.15
383.616	0.85
383.745	-0.15
383.874	5.85
384.003	-3.15
384.131	4.85
384.26	1.85
384.389	4.85
384.517	6.85
384.646	9.85
384.774	2.85
384.903	24.85
385.032	16.85
385.16	12.85
385.289	-6.15
385.418	5.85
385.546	7.85
385.675	23.85
385.803	9.85
385.932	5.85
386.06	-22.15
386.189	3.85
386.318	12.85
386.446	-11.15
386.575	13.85
386.703	13.85
386.832	-0.15
386.96	-11.15
387.089	9.85
387.217	8.85
387.346	-11.15
387.474	-10.15
387.603	-8.15
387.731	-4.15
387.86	9.85
387.988	9.85
388.117	15.85
388.245	14.85
388.374	0.85
388.502	4.85
388.631	4.85
388.759	-0.15
388.888	15.85
389.016	-5.15
389.144	-10.15
389.273	-11.15
389.401	-30.15
389.53	-18.15
389.658	0.85
389.786	-10.15
389.915	-16.15
390.043	-15.15
390.172	9.85
390.3	11.85
390.428	14.85
390.557	4.85
390.685	-1.15
390.813	9.85
390.942	15.85
391.07	15.85
391.198	15.85
391.327	10.85
391.455	-2.15
391.583	34.85
391.712	3.85
391.84	13.85
391.968	-12.15
392.096	-3.15
392.225	-7.15
392.353	19.85
392.481	-1.15
392.609	14.85
392.738	22.85
392.866	7.85
392.994	6.85
393.122	20.85
393.251	-11.15
393.379	-7.15
393.507	-11.15
393.635	-1.15
393.764	-7.15
393.892	17.85
394.02	0.85
394.148	-2.15
394.276	1.85
394.404	30.85
394.533	1.85
394.661	6.85
394.789	23.85
394.917	35.85
395.045	-9.15
395.173	-10.15
395.302	-6.15
395.43	-0.15
395.558	14.85
395.686	8.85
395.814	-0.15
395.942	-10.15
396.07	2.85
396.198	3.85
396.326	9.85
396.454	33.85
396.582	16.85
396.711	14.85
396.839	33.85
396.967	18.85
397.095	15.85
397.223	16.85
397.351	36.85
397.479	21.85
397.607	-13.15
397.735	5.85
397.863	14.85
397.991	6.85
398.119	-19.15
398.247	7.85
398.375	11.85
398.503	-1.15
398.631	-4.15
398.759	12.85
398.887	27.85
399.015	-7.15
399.143	2.85
399.271	0.85
399.399	10.85
399.526	19.85
399.654	19.85
399.782	-9.15
399.91	22.85
400.038	19.85
400.166	16.85
400.294	-3.15
400.422	-6.15
400.55	13.85
400.678	13.85
400.805	7.85
400.933	1.85
401.061	8.85
401.189	-6.15
401.317	16.85
401.445	4.85
401.573	27.85
401.7	-16.15
401.828	-11.15
401.956	-5.15
402.084	19.85
402.212	20.85
402.34	11.85
402.467	15.85
402.595	17.85
402.723	-0.15
402.851	16.85
402.978	13.85
403.106	18.85
403.234	2.85
403.362	28.85
403.489	22.85
403.617	0.85
403.745	-2.15
403.873	-10.15
404	5.85
404.128	-0.15
404.256	20.85
404.384	24.85
404.511	12.85
404.639	-17.15
404.767	-5.15
404.894	-0.15
405.022	14.85
405.15	15.85
405.277	-20.15
405.405	-0.15
405.533	-1.15
405.66	5.85
405.788	-13.15
405.916	-7.15
406.043	-10.15
406.171	-7.15
406.299	21.85
406.426	25.85
406.554	-1.15
406.681	19.85
406.809	16.85
406.937	3.85
407.064	16.85
407.192	29.85
407.319	2.85
407.447	3.85
407.574	15.85
407.702	4.85
407.83	-8.15
407.957	-8.15
408.085	11.85
408.212	4.85
408.34	-6.15
408.467	-7.15
408.595	11.85
408.722	12.85
408.85	6.85
408.977	-8.15
409.105	-4.15
409.232	0.85
409.36	-3.15
409.487	4.85
409.615	13.85
409.742	31.85
409.87	31.85
409.997	43.85
410.125	51.85
410.252	53.85
410.379	55.85
410.507	33.85
410.634	18.85
410.762	8.85
410.889	21.85
411.017	-1.15
411.144	12.85
411.271	12.85
411.399	2.85
411.526	10.85
411.653	-0.15
411.781	27.85
411.908	14.85
412.036	7.85
412.163	8.85
412.29	17.85
412.418	4.85
412.545	9.85
412.672	-19.15
412.8	16.85
412.927	-2.15
413.054	20.85
413.182	24.85
413.309	1.85
413.436	-2.15
413.564	-1.15
413.691	5.85
413.818	14.85
413.945	-9.15
414.073	6.85
414.2	22.85
414.327	28.85
414.454	23.85
414.582	10.85
414.709	-11.15
414.836	-10.15
414.963	7.85
415.091	7.85
415.218	-8.15
415.345	-13.15
415.472	7.85
415.6	6.85
415.727	14.85
415.854	12.85
415.981	12.85
416.108	-8.15
416.236	19.85
416.363	20.85
416.49	-3.15
416.617	7.85
416.744	7.85
416.871	10.85
416.998	-8.15
417.126	6.85
417.253	5.85
417.38	14.85
417.507	-1.15
417.634	-3.15
417.761	13.85
417.888	17.85
418.015	-3.15
418.143	2.85
418.27	26.85
418.397	9.85
418.524	14.85
418.651	-16.15
418.778	14.85
418.905	20.85
419.032	11.85
419.159	4.85
419.286	23.85
419.413	20.85
419.54	26.85
419.667	-2.15
