Data from LowRes_H2_15_26_11_07_2024_HR4C61881__20__15-28-15-637.txt Node

Date: Thu Nov 07 15:28:15 EST 2024
User: crc00042
Spectrometer: HR4C6188
Trigger mode: 4
Integration Time (sec): 1.000000E-1
Scans to average: 1
Electric dark correction enabled: true
Nonlinearity correction enabled: false
Boxcar width: 0
XAxis mode: Wavelengths
Number of Pixels in Spectrum: 3648
>>>>>Begin Spectral Data<<<<<
245.66	-122.85
245.797	-122.85
245.934	-122.85
246.071	-83.85
246.208	-10.85
246.344	-7.85
246.481	-12.85
246.618	-9.85
246.755	30.15
246.892	6.15
247.029	-14.85
247.165	-5.85
247.302	17.15
247.439	-3.85
247.576	17.15
247.713	-9.85
247.849	13.15
247.986	-18.85
248.123	9.15
248.26	-11.85
248.396	5.15
248.533	-2.85
248.67	2.15
248.806	19.15
248.943	-1.85
249.08	-5.85
249.216	5.15
249.353	2.15
249.49	-1.85
249.626	5.15
249.763	6.15
249.9	-15.85
250.036	-0.85
250.173	-0.85
250.309	7.15
250.446	-5.85
250.582	-15.85
250.719	-7.85
250.856	4.15
250.992	-11.85
251.129	-2.85
251.265	-20.85
251.402	6.15
251.538	11.15
251.675	3.15
251.811	30.15
251.948	21.15
252.084	14.15
252.221	3.15
252.357	-1.85
252.493	32.15
252.63	-13.85
252.766	12.15
252.903	-3.85
253.039	2.15
253.175	-8.85
253.312	5.15
253.448	-9.85
253.585	-28.85
253.721	18.15
253.857	-1.85
253.994	21.15
254.13	2.15
254.266	7.15
254.403	-13.85
254.539	-0.85
254.675	24.15
254.811	16.15
254.948	15.15
255.084	8.15
255.22	-10.85
255.356	-8.85
255.493	21.15
255.629	13.15
255.765	12.15
255.901	22.15
256.037	3.15
256.174	1.15
256.31	-8.85
256.446	3.15
256.582	4.15
256.718	8.15
256.854	19.15
256.991	-2.85
257.127	15.15
257.263	-4.85
257.399	-12.85
257.535	-13.85
257.671	-3.85
257.807	-0.85
257.943	-2.85
258.079	-24.85
258.215	11.15
258.351	9.15
258.487	20.15
258.623	39.15
258.759	-2.85
258.895	4.15
259.031	4.15
259.167	-19.85
259.303	-2.85
259.439	3.15
259.575	4.15
259.711	-5.85
259.847	-17.85
259.983	16.15
260.119	1.15
260.255	7.15
260.391	8.15
260.527	17.15
260.663	29.15
260.799	7.15
260.934	-2.85
261.07	-10.85
261.206	-3.85
261.342	3.15
261.478	21.15
261.614	20.15
261.749	2.15
261.885	-3.85
262.021	-2.85
262.157	12.15
262.293	-15.85
262.428	0.15
262.564	3.15
262.7	21.15
262.836	6.15
262.971	17.15
263.107	4.15
263.243	10.15
263.378	-7.85
263.514	-7.85
263.65	5.15
263.785	-3.85
263.921	-2.85
264.057	0.15
264.192	18.15
264.328	25.15
264.464	11.15
264.599	8.15
264.735	29.15
264.871	6.15
265.006	-0.85
265.142	-4.85
265.277	-14.85
265.413	2.15
265.548	13.15
265.684	15.15
265.819	14.15
265.955	-9.85
266.091	8.15
266.226	-11.85
266.362	-6.85
266.497	23.15
266.633	-7.85
266.768	-7.85
266.903	4.15
267.039	20.15
267.174	17.15
267.31	0.15
267.445	-0.85
267.581	1.15
267.716	3.15
267.851	11.15
267.987	9.15
268.122	-0.85
268.258	10.15
268.393	-7.85
268.528	16.15
268.664	-4.85
268.799	-21.85
268.934	-24.85
269.07	-16.85
269.205	-11.85
269.34	7.15
269.476	1.15
269.611	-13.85
269.746	13.15
269.881	12.15
270.017	18.15
270.152	-7.85
270.287	3.15
270.422	7.15
270.558	13.15
270.693	18.15
270.828	5.15
270.963	-16.85
271.098	-4.85
271.234	-10.85
271.369	23.15
271.504	5.15
271.639	-12.85
271.774	-10.85
271.909	0.15
272.045	-20.85
272.18	-6.85
272.315	-12.85
272.45	5.15
272.585	1.15
272.72	-14.85
272.855	-4.85
272.99	17.15
273.125	-4.85
273.26	1.15
273.395	-13.85
273.53	-23.85
273.665	1.15
273.8	4.15
273.935	4.15
274.07	-9.85
274.205	6.15
274.34	13.15
274.475	-4.85
274.61	5.15
274.745	-17.85
274.88	14.15
275.015	-20.85
275.15	9.15
275.285	10.15
275.42	7.15
275.555	22.15
275.69	7.15
275.825	11.15
275.959	34.15
276.094	1.15
276.229	-6.85
276.364	0.15
276.499	-4.85
276.634	3.15
276.768	-11.85
276.903	-5.85
277.038	10.15
277.173	1.15
277.308	-11.85
277.442	-5.85
277.577	-18.85
277.712	-5.85
277.847	8.15
277.981	2.15
278.116	-4.85
278.251	27.15
278.386	3.15
278.52	4.15
278.655	17.15
278.79	21.15
278.924	12.15
279.059	16.15
279.194	-7.85
279.328	37.15
279.463	8.15
279.598	12.15
279.732	5.15
279.867	16.15
280.001	14.15
280.136	2.15
280.271	25.15
280.405	3.15
280.54	-9.85
280.674	-12.85
280.809	15.15
280.943	6.15
281.078	0.15
281.213	19.15
281.347	9.15
281.482	-10.85
281.616	-1.85
281.751	-3.85
281.885	-16.85
282.02	-5.85
282.154	-0.85
282.288	-17.85
282.423	-22.85
282.557	-16.85
282.692	-8.85
282.826	3.15
282.961	8.15
283.095	11.15
283.229	12.15
283.364	4.15
283.498	-3.85
283.633	10.15
283.767	1.15
283.901	10.15
284.036	12.15
284.17	10.15
284.304	-0.85
284.439	0.15
284.573	-5.85
284.707	15.15
284.842	17.15
284.976	5.15
285.11	-14.85
285.244	-3.85
285.379	27.15
285.513	-3.85
285.647	19.15
285.781	21.15
285.916	19.15
286.05	-3.85
286.184	31.15
286.318	26.15
286.453	-7.85
286.587	1.15
286.721	-3.85
286.855	0.15
286.989	0.15
287.123	-5.85
287.258	-12.85
287.392	17.15
287.526	5.15
287.66	1.15
287.794	-6.85
287.928	2.15
288.062	-3.85
288.196	-11.85
288.33	-5.85
288.464	13.15
288.598	5.15
288.733	2.15
288.867	32.15
289.001	11.15
289.135	1.15
289.269	-17.85
289.403	-7.85
289.537	8.15
289.671	16.15
289.805	-22.85
289.939	-8.85
290.073	-4.85
290.207	10.15
290.34	-16.85
290.474	0.15
290.608	30.15
290.742	13.15
290.876	-12.85
291.01	-3.85
291.144	34.15
291.278	11.15
291.412	12.15
291.546	4.15
291.679	-3.85
291.813	12.15
291.947	-3.85
292.081	-9.85
292.215	-5.85
292.349	16.15
292.482	3.15
292.616	0.15
292.75	15.15
292.884	14.15
293.018	-3.85
293.151	-10.85
293.285	11.15
293.419	-18.85
293.553	-5.85
293.686	-6.85
293.82	11.15
293.954	9.15
294.088	29.15
294.221	-6.85
294.355	3.15
294.489	8.15
294.622	-13.85
294.756	0.15
294.89	8.15
295.023	-6.85
295.157	7.15
295.291	18.15
295.424	20.15
295.558	1.15
295.691	1.15
295.825	-11.85
295.959	1.15
296.092	-11.85
296.226	8.15
296.359	-8.85
296.493	12.15
296.627	13.15
296.76	25.15
296.894	-23.85
297.027	21.15
297.161	15.15
297.294	-18.85
297.428	-2.85
297.561	22.15
297.695	-7.85
297.828	-5.85
297.962	-9.85
298.095	-20.85
298.229	5.15
298.362	-22.85
298.495	-19.85
298.629	-9.85
298.762	7.15
298.896	6.15
299.029	-4.85
299.162	2.15
299.296	3.15
299.429	12.15
299.563	21.15
299.696	2.15
299.829	1.15
299.963	9.15
300.096	-4.85
300.229	-9.85
300.363	1.15
300.496	-2.85
300.629	-23.85
300.763	3.15
300.896	-7.85
301.029	11.15
301.162	-7.85
301.296	-7.85
301.429	3.15
301.562	-19.85
301.695	1.15
301.829	16.15
301.962	24.15
302.095	9.15
302.228	-17.85
302.362	4.15
302.495	-26.85
302.628	-1.85
302.761	-12.85
302.894	8.15
303.027	11.15
303.161	-22.85
303.294	-13.85
303.427	0.15
303.56	-12.85
303.693	-1.85
303.826	4.15
303.959	10.15
304.092	6.15
304.225	-8.85
304.359	-2.85
304.492	8.15
304.625	-7.85
304.758	13.15
304.891	-19.85
305.024	-7.85
305.157	-7.85
305.29	-5.85
305.423	-9.85
305.556	18.15
305.689	27.15
305.822	-0.85
305.955	16.15
306.088	-5.85
306.221	-0.85
306.354	-19.85
306.487	-29.85
306.62	-32.85
306.752	11.15
306.885	12.15
307.018	6.15
307.151	-5.85
307.284	3.15
307.417	-4.85
307.55	8.15
307.683	9.15
307.816	20.15
307.948	22.15
308.081	17.15
308.214	16.15
308.347	17.15
308.48	5.15
308.613	-14.85
308.745	-8.85
308.878	-0.85
309.011	-10.85
309.144	4.15
309.277	1.15
309.409	21.15
309.542	-8.85
309.675	-0.85
309.808	9.15
309.94	4.15
310.073	-6.85
310.206	5.15
310.339	-0.85
310.471	-12.85
310.604	13.15
310.737	-6.85
310.869	-12.85
311.002	-11.85
311.135	4.15
311.267	-23.85
311.4	-13.85
311.533	19.15
311.665	-3.85
311.798	-3.85
311.93	-8.85
312.063	1.15
312.196	1.15
312.328	-0.85
312.461	-7.85
312.593	9.15
312.726	22.15
312.859	1.15
312.991	20.15
313.124	-18.85
313.256	18.15
313.389	13.15
313.521	-5.85
313.654	4.15
313.786	-9.85
313.919	-5.85
314.051	-0.85
314.184	7.15
314.316	12.15
314.449	-8.85
314.581	2.15
314.714	9.15
314.846	3.15
314.978	2.15
315.111	-6.85
315.243	23.15
315.376	-7.85
315.508	8.15
315.641	-5.85
315.773	31.15
315.905	21.15
316.038	-17.85
316.17	-2.85
316.302	5.15
316.435	-8.85
316.567	-6.85
316.699	25.15
316.832	-6.85
316.964	-8.85
317.096	5.15
317.229	-0.85
317.361	-14.85
317.493	-5.85
317.625	-22.85
317.758	-0.85
317.89	4.15
318.022	12.15
318.155	-6.85
318.287	-2.85
318.419	-2.85
318.551	3.15
318.683	6.15
318.816	-5.85
318.948	-8.85
319.08	-10.85
319.212	5.15
319.344	9.15
319.477	-0.85
319.609	9.15
319.741	11.15
319.873	-10.85
320.005	9.15
320.137	11.15
320.269	3.15
320.401	15.15
320.534	0.15
320.666	-13.85
320.798	-35.85
320.93	-15.85
321.062	-0.85
321.194	1.15
321.326	-1.85
321.458	24.15
321.59	9.15
321.722	-4.85
321.854	0.15
321.986	1.15
322.118	-1.85
322.25	-7.85
322.382	-3.85
322.514	-11.85
322.646	-18.85
322.778	22.15
322.91	-14.85
323.042	-4.85
323.174	-1.85
323.306	-6.85
323.438	-25.85
323.57	17.15
323.702	6.15
323.834	-1.85
323.966	-18.85
324.097	-4.85
324.229	20.15
324.361	24.15
324.493	2.15
324.625	-11.85
324.757	3.15
324.889	8.15
325.021	-6.85
325.152	15.15
325.284	11.15
325.416	6.15
325.548	17.15
325.68	1.15
325.811	29.15
325.943	9.15
326.075	-9.85
326.207	3.15
326.339	3.15
326.47	-0.85
326.602	4.15
326.734	5.15
326.866	8.15
326.997	-7.85
327.129	-12.85
327.261	-10.85
327.392	-2.85
327.524	-5.85
327.656	8.15
327.787	9.15
327.919	8.15
328.051	18.15
328.182	29.15
328.314	30.15
328.446	-0.85
328.577	9.15
328.709	7.15
328.841	-15.85
328.972	-8.85
329.104	-7.85
329.235	1.15
329.367	3.15
329.499	-13.85
329.63	-2.85
329.762	-6.85
329.893	21.15
330.025	-10.85
330.156	-19.85
330.288	-11.85
330.419	14.15
330.551	29.15
330.683	13.15
330.814	-1.85
330.946	19.15
331.077	-10.85
331.208	1.15
331.34	-6.85
331.471	-13.85
331.603	-18.85
331.734	-15.85
331.866	5.15
331.997	16.15
332.129	3.15
332.26	-11.85
332.392	11.15
332.523	2.15
332.654	1.15
332.786	-22.85
332.917	-1.85
333.048	9.15
333.18	18.15
333.311	-0.85
333.443	-7.85
333.574	-14.85
333.705	19.15
333.837	-12.85
333.968	5.15
334.099	16.15
334.231	26.15
334.362	1.15
334.493	26.15
334.624	17.15
334.756	13.15
334.887	4.15
335.018	6.15
335.15	-2.85
335.281	16.15
335.412	34.15
335.543	8.15
335.675	13.15
335.806	-13.85
335.937	8.15
336.068	1.15
336.199	24.15
336.331	-7.85
336.462	5.15
336.593	22.15
336.724	1.15
336.855	7.15
336.986	24.15
337.118	16.15
337.249	-2.85
337.38	6.15
337.511	-2.85
337.642	3.15
337.773	18.15
337.904	-15.85
338.035	0.15
338.166	11.15
338.298	13.15
338.429	-14.85
338.56	15.15
338.691	17.15
338.822	1.15
338.953	10.15
339.084	22.15
339.215	25.15
339.346	16.15
339.477	1.15
339.608	8.15
339.739	-2.85
339.87	8.15
340.001	3.15
340.132	27.15
340.263	-2.85
340.394	27.15
340.525	8.15
340.656	-3.85
340.787	-18.85
340.918	7.15
341.049	22.15
341.179	9.15
341.31	11.15
341.441	-4.85
341.572	9.15
341.703	7.15
341.834	-12.85
341.965	4.15
342.096	-4.85
342.227	19.15
342.357	7.15
342.488	14.15
342.619	23.15
342.75	13.15
342.881	-8.85
343.012	16.15
343.142	25.15
343.273	-10.85
343.404	9.15
343.535	56.15
343.666	8.15
343.796	0.15
343.927	9.15
344.058	20.15
344.189	-3.85
344.319	7.15
344.45	0.15
344.581	15.15
344.712	-13.85
344.842	-11.85
344.973	6.15
345.104	-5.85
345.234	13.15
345.365	-13.85
345.496	10.15
345.626	4.15
345.757	15.15
345.888	-18.85
346.018	10.15
346.149	-7.85
346.28	10.15
346.41	-16.85
346.541	-0.85
346.672	4.15
346.802	18.15
346.933	1.15
347.063	3.15
347.194	8.15
347.325	13.15
347.455	0.15
347.586	-2.85
347.716	-12.85
347.847	8.15
347.977	14.15
348.108	14.15
348.238	-16.85
348.369	-9.85
348.499	0.15
348.63	0.15
348.76	22.15
348.891	9.15
349.021	9.15
349.152	6.15
349.282	15.15
349.413	5.15
349.543	6.15
349.674	5.15
349.804	30.15
349.935	-5.85
350.065	9.15
350.196	-7.85
350.326	1.15
350.456	2.15
350.587	13.15
350.717	9.15
350.848	16.15
350.978	11.15
351.108	-18.85
351.239	-0.85
351.369	3.15
351.499	10.15
351.63	-4.85
351.76	-3.85
351.89	10.15
352.021	11.15
352.151	4.15
352.281	15.15
352.412	11.15
352.542	5.15
352.672	3.15
352.803	3.15
352.933	17.15
353.063	15.15
353.193	2.15
353.324	0.15
353.454	1.15
353.584	11.15
353.714	12.15
353.845	13.15
353.975	4.15
354.105	-21.85
354.235	10.15
354.365	4.15
354.496	-0.85
354.626	7.15
354.756	33.15
354.886	9.15
355.016	17.15
355.146	-15.85
355.277	13.15
355.407	-2.85
355.537	17.15
355.667	4.15
355.797	-2.85
355.927	-5.85
356.057	13.15
356.187	-2.85
356.318	-11.85
356.448	-6.85
356.578	-0.85
356.708	4.15
356.838	4.15
356.968	0.15
357.098	26.15
357.228	8.15
357.358	-2.85
357.488	-14.85
357.618	24.15
357.748	27.15
357.878	25.15
358.008	10.15
358.138	-2.85
358.268	-11.85
358.398	14.15
358.528	-18.85
358.658	19.15
358.788	16.15
358.918	21.15
359.048	-13.85
359.178	21.15
359.308	15.15
359.438	15.15
359.568	-2.85
359.698	2.15
359.827	-0.85
359.957	17.15
360.087	11.15
360.217	7.15
360.347	11.15
360.477	6.15
360.607	-9.85
360.737	16.15
360.866	6.15
360.996	-3.85
361.126	-8.85
361.256	20.15
361.386	1.15
361.516	11.15
361.645	-21.85
361.775	13.15
361.905	-15.85
362.035	10.15
362.165	8.15
362.294	24.15
362.424	-5.85
362.554	17.15
362.684	-1.85
362.813	1.15
362.943	5.15
363.073	3.15
363.203	-3.85
363.332	-8.85
363.462	-20.85
363.592	1.15
363.721	-10.85
363.851	-14.85
363.981	14.15
364.111	2.15
364.24	2.15
364.37	10.15
364.5	19.15
364.629	19.15
364.759	-20.85
364.888	-16.85
365.018	9.15
365.148	25.15
365.277	27.15
365.407	16.15
365.537	4.15
365.666	7.15
365.796	1.15
365.925	12.15
366.055	14.15
366.184	-13.85
366.314	-3.85
366.444	10.15
366.573	-2.85
366.703	-7.85
366.832	3.15
366.962	17.15
367.091	9.15
367.221	1.15
367.35	8.15
367.48	31.15
367.609	3.15
367.739	17.15
367.868	-7.85
367.998	1.15
368.127	10.15
368.257	-2.85
368.386	20.15
368.516	27.15
368.645	1.15
368.775	4.15
368.904	7.15
369.033	-4.85
369.163	-9.85
369.292	18.15
369.422	12.15
369.551	15.15
369.68	18.15
369.81	29.15
369.939	0.15
370.069	31.15
370.198	19.15
370.327	-6.85
370.457	-2.85
370.586	17.15
370.715	-4.85
370.845	9.15
370.974	4.15
371.103	4.15
371.233	4.15
371.362	3.15
371.491	-0.85
371.621	3.15
371.75	11.15
371.879	-7.85
372.008	6.15
372.138	-4.85
372.267	13.15
372.396	1.15
372.525	12.15
372.655	15.15
372.784	-0.85
372.913	3.15
373.042	9.15
373.172	27.15
373.301	-6.85
373.43	-4.85
373.559	-16.85
373.688	11.15
373.818	0.15
373.947	21.15
374.076	6.15
374.205	7.15
374.334	17.15
374.463	-2.85
374.593	10.15
374.722	23.15
374.851	32.15
374.98	-1.85
375.109	-14.85
375.238	24.15
375.367	40.15
375.496	-0.85
375.625	8.15
375.755	25.15
375.884	34.15
376.013	33.15
376.142	-2.85
376.271	17.15
376.4	5.15
376.529	8.15
376.658	-5.85
376.787	-1.85
376.916	12.15
377.045	-4.85
377.174	6.15
377.303	-11.85
377.432	17.15
377.561	13.15
377.69	6.15
377.819	35.15
377.948	23.15
378.077	-1.85
378.206	-18.85
378.335	1.15
378.464	1.15
378.593	18.15
378.722	-11.85
378.851	1.15
378.98	33.15
379.108	-3.85
379.237	-2.85
379.366	16.15
379.495	22.15
379.624	9.15
379.753	11.15
379.882	21.15
380.011	-21.85
380.14	-12.85
380.268	3.15
380.397	-2.85
380.526	19.15
380.655	5.15
380.784	-15.85
380.913	-10.85
381.041	-18.85
381.17	-24.85
381.299	-3.85
381.428	17.15
381.557	5.15
381.685	7.15
381.814	2.15
381.943	-6.85
382.072	-1.85
382.2	-5.85
382.329	11.15
382.458	-1.85
382.587	31.15
382.715	37.15
382.844	16.15
382.973	11.15
383.102	25.15
383.23	-10.85
383.359	12.15
383.488	17.15
383.616	-8.85
383.745	4.15
383.874	13.15
384.003	4.15
384.131	-7.85
384.26	-4.85
384.389	15.15
384.517	-12.85
384.646	-7.85
384.774	-5.85
384.903	-4.85
385.032	14.15
385.16	21.15
385.289	17.15
385.418	-14.85
385.546	10.15
385.675	25.15
385.803	3.15
385.932	1.15
386.06	-5.85
386.189	3.15
386.318	5.15
386.446	1.15
386.575	2.15
386.703	8.15
386.832	5.15
386.96	-15.85
387.089	10.15
387.217	11.15
387.346	1.15
387.474	18.15
387.603	7.15
387.731	11.15
387.86	17.15
387.988	0.15
388.117	26.15
388.245	12.15
388.374	-21.85
388.502	-5.85
388.631	-6.85
388.759	1.15
388.888	11.15
389.016	3.15
389.144	15.15
389.273	10.15
389.401	4.15
389.53	-17.85
389.658	23.15
389.786	-10.85
389.915	-11.85
390.043	-5.85
390.172	4.15
390.3	26.15
390.428	33.15
390.557	18.15
390.685	19.15
390.813	18.15
390.942	20.15
391.07	12.15
391.198	8.15
391.327	3.15
391.455	-12.85
391.583	22.15
391.712	6.15
391.84	15.15
391.968	9.15
392.096	-8.85
392.225	-11.85
392.353	-0.85
392.481	-3.85
392.609	17.15
392.738	-0.85
392.866	13.15
392.994	-8.85
393.122	23.15
393.251	5.15
393.379	1.15
393.507	-3.85
393.635	-7.85
393.764	11.15
393.892	18.15
394.02	4.15
394.148	-4.85
394.276	-8.85
394.404	23.15
394.533	-7.85
394.661	19.15
394.789	20.15
394.917	33.15
395.045	13.15
395.173	-3.85
395.302	14.15
395.43	13.15
395.558	28.15
395.686	21.15
395.814	24.15
395.942	12.15
396.07	-5.85
396.198	22.15
396.326	21.15
396.454	13.15
396.582	22.15
396.711	3.15
396.839	27.15
396.967	8.15
397.095	-0.85
397.223	10.15
397.351	18.15
397.479	28.15
397.607	18.15
397.735	2.15
397.863	19.15
397.991	19.15
398.119	-9.85
398.247	2.15
398.375	5.15
398.503	7.15
398.631	17.15
398.759	0.15
398.887	11.15
399.015	3.15
399.143	-0.85
399.271	-12.85
399.399	-0.85
399.526	20.15
399.654	20.15
399.782	-14.85
399.91	25.15
400.038	28.15
400.166	10.15
400.294	1.15
400.422	-2.85
400.55	8.15
400.678	27.15
400.805	16.15
400.933	3.15
401.061	25.15
401.189	0.15
401.317	3.15
401.445	12.15
401.573	30.15
401.7	8.15
401.828	-11.85
401.956	7.15
402.084	12.15
402.212	32.15
402.34	13.15
402.467	3.15
402.595	-6.85
402.723	10.15
402.851	28.15
402.978	2.15
403.106	21.15
403.234	7.15
403.362	12.15
403.489	17.15
403.617	8.15
403.745	-2.85
403.873	4.15
404	18.15
404.128	14.15
404.256	1.15
404.384	14.15
404.511	10.15
404.639	-5.85
404.767	-1.85
404.894	-0.85
405.022	11.15
405.15	23.15
405.277	-0.85
405.405	-12.85
405.533	-6.85
405.66	11.15
405.788	-7.85
405.916	-32.85
406.043	-18.85
406.171	-19.85
406.299	17.15
406.426	21.15
406.554	18.15
406.681	17.15
406.809	16.15
406.937	5.15
407.064	1.15
407.192	23.15
407.319	5.15
407.447	-3.85
407.574	38.15
407.702	7.15
407.83	4.15
407.957	-26.85
408.085	-11.85
408.212	-13.85
408.34	21.15
408.467	6.15
408.595	19.15
408.722	13.15
408.85	3.15
408.977	1.15
409.105	1.15
409.232	17.15
409.36	1.15
409.487	19.15
409.615	22.15
409.742	17.15
409.87	32.15
409.997	56.15
410.125	50.15
410.252	49.15
410.379	55.15
410.507	21.15
410.634	16.15
410.762	13.15
410.889	4.15
411.017	-4.85
411.144	29.15
411.271	0.15
411.399	3.15
411.526	22.15
411.653	32.15
411.781	26.15
411.908	7.15
412.036	-0.85
412.163	23.15
412.29	26.15
412.418	3.15
412.545	14.15
412.672	12.15
412.8	41.15
412.927	25.15
413.054	19.15
413.182	13.15
413.309	7.15
413.436	-15.85
413.564	-6.85
413.691	8.15
413.818	26.15
413.945	-0.85
414.073	10.15
414.2	32.15
414.327	6.15
414.454	2.15
414.582	14.15
414.709	-10.85
414.836	-2.85
414.963	1.15
415.091	-2.85
415.218	3.15
415.345	11.15
415.472	10.15
415.6	-9.85
415.727	17.15
415.854	8.15
415.981	8.15
416.108	3.15
416.236	5.15
416.363	17.15
416.49	-2.85
416.617	6.15
416.744	21.15
416.871	8.15
416.998	2.15
417.126	13.15
417.253	-9.85
417.38	-3.85
417.507	1.15
417.634	6.15
417.761	15.15
417.888	17.15
418.015	16.15
418.143	18.15
418.27	22.15
418.397	0.15
418.524	3.15
418.651	7.15
418.778	14.15
418.905	25.15
419.032	21.15
419.159	10.15
419.286	30.15
419.413	23.15
419.54	19.15
419.667	-18.85
419.794	-6.85
419.921	3.15
420.048	5.15
420.175	11.15
420.302	-15.85
