Data from LowRes_H2_15_26_11_07_2024_HR4C61881__8__15-28-14-437.txt Node

Date: Thu Nov 07 15:28:14 EST 2024
User: crc00042
Spectrometer: HR4C6188
Trigger mode: 4
Integration Time (sec): 1.000000E-1
Scans to average: 1
Electric dark correction enabled: true
Nonlinearity correction enabled: false
Boxcar width: 0
XAxis mode: Wavelengths
Number of Pixels in Spectrum: 3648
>>>>>Begin Spectral Data<<<<<
245.66	-109.62
245.797	-109.62
245.934	-109.62
246.071	-87.62
246.208	22.38
246.344	3.38
246.481	-9.62
246.618	-16.62
246.755	32.38
246.892	7.38
247.029	-26.62
247.165	-17.62
247.302	10.38
247.439	2.38
247.576	14.38
247.713	-0.62
247.849	21.38
247.986	-20.62
248.123	-5.62
248.26	-12.62
248.396	0.38
248.533	-2.62
248.67	-32.62
248.806	-0.62
248.943	-17.62
249.08	2.38
249.216	11.38
249.353	-24.62
249.49	-4.62
249.626	-4.62
249.763	-0.62
249.9	-23.62
250.036	-21.62
250.173	6.38
250.309	4.38
250.446	-13.62
250.582	-15.62
250.719	-9.62
250.856	2.38
250.992	-12.62
251.129	-12.62
251.265	-23.62
251.402	-3.62
251.538	-15.62
251.675	-6.62
251.811	-5.62
251.948	-1.62
252.084	2.38
252.221	-14.62
252.357	-8.62
252.493	15.38
252.63	24.38
252.766	7.38
252.903	-0.62
253.039	-14.62
253.175	-5.62
253.312	-0.62
253.448	-8.62
253.585	-6.62
253.721	9.38
253.857	-4.62
253.994	-8.62
254.13	-5.62
254.266	-0.62
254.403	-17.62
254.539	10.38
254.675	5.38
254.811	-10.62
254.948	-3.62
255.084	-15.62
255.22	-24.62
255.356	0.38
255.493	11.38
255.629	-4.62
255.765	-10.62
255.901	-2.62
256.037	11.38
256.174	-1.62
256.31	-23.62
256.446	-15.62
256.582	-18.62
256.718	7.38
256.854	27.38
256.991	26.38
257.127	27.38
257.263	13.38
257.399	4.38
257.535	4.38
257.671	-6.62
257.807	-14.62
257.943	-20.62
258.079	-17.62
258.215	-9.62
258.351	2.38
258.487	-9.62
258.623	16.38
258.759	-15.62
258.895	6.38
259.031	-8.62
259.167	10.38
259.303	13.38
259.439	0.38
259.575	11.38
259.711	-14.62
259.847	-3.62
259.983	0.38
260.119	10.38
260.255	1.38
260.391	-4.62
260.527	5.38
260.663	3.38
260.799	-5.62
260.934	9.38
261.07	6.38
261.206	-18.62
261.342	-17.62
261.478	0.38
261.614	16.38
261.749	6.38
261.885	-0.62
262.021	-13.62
262.157	30.38
262.293	-10.62
262.428	-7.62
262.564	-15.62
262.7	19.38
262.836	-6.62
262.971	20.38
263.107	21.38
263.243	30.38
263.378	14.38
263.514	-0.62
263.65	2.38
263.785	-12.62
263.921	-1.62
264.057	-5.62
264.192	5.38
264.328	4.38
264.464	-5.62
264.599	-5.62
264.735	14.38
264.871	-2.62
265.006	-3.62
265.142	0.38
265.277	1.38
265.413	21.38
265.548	21.38
265.684	26.38
265.819	5.38
265.955	-21.62
266.091	-11.62
266.226	-19.62
266.362	-2.62
266.497	2.38
266.633	-3.62
266.768	-9.62
266.903	-9.62
267.039	1.38
267.174	24.38
267.31	-7.62
267.445	0.38
267.581	-16.62
267.716	1.38
267.851	26.38
267.987	8.38
268.122	27.38
268.258	-10.62
268.393	-7.62
268.528	10.38
268.664	3.38
268.799	-16.62
268.934	-7.62
269.07	-3.62
269.205	3.38
269.34	13.38
269.476	-4.62
269.611	-8.62
269.746	25.38
269.881	4.38
270.017	8.38
270.152	-2.62
270.287	14.38
270.422	19.38
270.558	-2.62
270.693	14.38
270.828	11.38
270.963	-17.62
271.098	-4.62
271.234	-11.62
271.369	2.38
271.504	10.38
271.639	-13.62
271.774	-13.62
271.909	-1.62
272.045	-28.62
272.18	-8.62
272.315	-15.62
272.45	-2.62
272.585	-9.62
272.72	2.38
272.855	-11.62
272.99	14.38
273.125	-4.62
273.26	-12.62
273.395	-0.62
273.53	3.38
273.665	13.38
273.8	-15.62
273.935	10.38
274.07	-0.62
274.205	7.38
274.34	9.38
274.475	7.38
274.61	17.38
274.745	-12.62
274.88	10.38
275.015	-11.62
275.15	13.38
275.285	-2.62
275.42	-12.62
275.555	6.38
275.69	-1.62
275.825	-12.62
275.959	5.38
276.094	-7.62
276.229	-6.62
276.364	-25.62
276.499	-7.62
276.634	-10.62
276.768	-8.62
276.903	3.38
277.038	23.38
277.173	2.38
277.308	-12.62
277.442	4.38
277.577	-20.62
277.712	0.38
277.847	14.38
277.981	-6.62
278.116	-39.62
278.251	8.38
278.386	9.38
278.52	12.38
278.655	-3.62
278.79	6.38
278.924	-10.62
279.059	1.38
279.194	-19.62
279.328	32.38
279.463	3.38
279.598	-5.62
279.732	2.38
279.867	5.38
280.001	16.38
280.136	-2.62
280.271	-4.62
280.405	2.38
280.54	-9.62
280.674	-6.62
280.809	7.38
280.943	0.38
281.078	-7.62
281.213	8.38
281.347	17.38
281.482	16.38
281.616	11.38
281.751	0.38
281.885	-30.62
282.02	-13.62
282.154	2.38
282.288	-22.62
282.423	-23.62
282.557	-21.62
282.692	5.38
282.826	-11.62
282.961	14.38
283.095	-3.62
283.229	9.38
283.364	-1.62
283.498	-3.62
283.633	2.38
283.767	4.38
283.901	2.38
284.036	6.38
284.17	8.38
284.304	-21.62
284.439	-2.62
284.573	-3.62
284.707	9.38
284.842	5.38
284.976	-15.62
285.11	-15.62
285.244	0.38
285.379	47.38
285.513	-2.62
285.647	-2.62
285.781	6.38
285.916	1.38
286.05	4.38
286.184	23.38
286.318	14.38
286.453	-6.62
286.587	-27.62
286.721	-12.62
286.855	-8.62
286.989	-9.62
287.123	-1.62
287.258	-7.62
287.392	1.38
287.526	-2.62
287.66	-7.62
287.794	4.38
287.928	-26.62
288.062	-1.62
288.196	-4.62
288.33	10.38
288.464	8.38
288.598	5.38
288.733	4.38
288.867	11.38
289.001	-4.62
289.135	-12.62
289.269	-11.62
289.403	-13.62
289.537	1.38
289.671	-2.62
289.805	-22.62
289.939	14.38
290.073	10.38
290.207	12.38
290.34	-12.62
290.474	17.38
290.608	5.38
290.742	-12.62
290.876	-5.62
291.01	0.38
291.144	21.38
291.278	7.38
291.412	7.38
291.546	-7.62
291.679	-18.62
291.813	-4.62
291.947	0.38
292.081	-8.62
292.215	0.38
292.349	9.38
292.482	4.38
292.616	14.38
292.75	9.38
292.884	-1.62
293.018	-8.62
293.151	-21.62
293.285	1.38
293.419	-9.62
293.553	2.38
293.686	-7.62
293.82	-19.62
293.954	16.38
294.088	18.38
294.221	-2.62
294.355	10.38
294.489	-0.62
294.622	-17.62
294.756	4.38
294.89	7.38
295.023	6.38
295.157	22.38
295.291	12.38
295.424	18.38
295.558	-0.62
295.691	5.38
295.825	-10.62
295.959	7.38
296.092	-7.62
296.226	-5.62
296.359	-1.62
296.493	20.38
296.627	16.38
296.76	1.38
296.894	-7.62
297.027	-2.62
297.161	-5.62
297.294	-15.62
297.428	-20.62
297.561	12.38
297.695	-2.62
297.828	-7.62
297.962	-7.62
298.095	-14.62
298.229	8.38
298.362	-21.62
298.495	-26.62
298.629	-11.62
298.762	-1.62
298.896	-14.62
299.029	-33.62
299.162	2.38
299.296	-4.62
299.429	-9.62
299.563	-15.62
299.696	5.38
299.829	-8.62
299.963	10.38
300.096	9.38
300.229	-2.62
300.363	0.38
300.496	6.38
300.629	-31.62
300.763	-17.62
300.896	-0.62
301.029	-2.62
301.162	5.38
301.296	-25.62
301.429	-0.62
301.562	-37.62
301.695	6.38
301.829	10.38
301.962	20.38
302.095	14.38
302.228	6.38
302.362	13.38
302.495	-13.62
302.628	24.38
302.761	-2.62
302.894	2.38
303.027	1.38
303.161	3.38
303.294	-15.62
303.427	14.38
303.56	5.38
303.693	-18.62
303.826	-1.62
303.959	-16.62
304.092	10.38
304.225	-16.62
304.359	-6.62
304.492	22.38
304.625	-14.62
304.758	-4.62
304.891	-30.62
305.024	2.38
305.157	-7.62
305.29	-9.62
305.423	-10.62
305.556	21.38
305.689	8.38
305.822	-10.62
305.955	3.38
306.088	1.38
306.221	-8.62
306.354	6.38
306.487	-15.62
306.62	-8.62
306.752	-12.62
306.885	-15.62
307.018	1.38
307.151	21.38
307.284	11.38
307.417	-8.62
307.55	0.38
307.683	22.38
307.816	8.38
307.948	17.38
308.081	11.38
308.214	10.38
308.347	11.38
308.48	-10.62
308.613	-7.62
308.745	-7.62
308.878	-12.62
309.011	2.38
309.144	1.38
309.277	-10.62
309.409	5.38
309.542	-7.62
309.675	-5.62
309.808	-5.62
309.94	23.38
310.073	-23.62
310.206	-8.62
310.339	-11.62
310.471	-24.62
310.604	14.38
310.737	1.38
310.869	-15.62
311.002	-11.62
311.135	4.38
311.267	-7.62
311.4	1.38
311.533	14.38
311.665	-7.62
311.798	3.38
311.93	-3.62
312.063	5.38
312.196	-3.62
312.328	-5.62
312.461	-15.62
312.593	-7.62
312.726	-4.62
312.859	-2.62
312.991	12.38
313.124	-25.62
313.256	-7.62
313.389	1.38
313.521	-29.62
313.654	-30.62
313.786	-20.62
313.919	-15.62
314.051	7.38
314.184	15.38
314.316	-4.62
314.449	-26.62
314.581	-24.62
314.714	6.38
314.846	17.38
314.978	-2.62
315.111	-5.62
315.243	-6.62
315.376	-1.62
315.508	7.38
315.641	-8.62
315.773	12.38
315.905	10.38
316.038	-10.62
316.17	0.38
316.302	9.38
316.435	3.38
316.567	-17.62
316.699	10.38
316.832	-11.62
316.964	8.38
317.096	-8.62
317.229	-9.62
317.361	-23.62
317.493	-21.62
317.625	-7.62
317.758	5.38
317.89	6.38
318.022	-4.62
318.155	-5.62
318.287	-18.62
318.419	16.38
318.551	14.38
318.683	2.38
318.816	-22.62
318.948	-14.62
319.08	-17.62
319.212	9.38
319.344	5.38
319.477	3.38
319.609	7.38
319.741	26.38
319.873	-3.62
320.005	-1.62
320.137	7.38
320.269	8.38
320.401	-1.62
320.534	-1.62
320.666	-3.62
320.798	-4.62
320.93	5.38
321.062	-13.62
321.194	-25.62
321.326	-7.62
321.458	-6.62
321.59	-11.62
321.722	-16.62
321.854	-24.62
321.986	2.38
322.118	-2.62
322.25	-9.62
322.382	-26.62
322.514	-13.62
322.646	-6.62
322.778	16.38
322.91	-17.62
323.042	-14.62
323.174	-11.62
323.306	-29.62
323.438	-23.62
323.57	-1.62
323.702	-8.62
323.834	-7.62
323.966	-15.62
324.097	1.38
324.229	5.38
324.361	7.38
324.493	20.38
324.625	-2.62
324.757	-4.62
324.889	-21.62
325.021	-8.62
325.152	13.38
325.284	9.38
325.416	0.38
325.548	10.38
325.68	5.38
325.811	17.38
325.943	8.38
326.075	-12.62
326.207	-7.62
326.339	21.38
326.47	-10.62
326.602	0.38
326.734	10.38
326.866	0.38
326.997	-9.62
327.129	-6.62
327.261	-18.62
327.392	-3.62
327.524	-7.62
327.656	8.38
327.787	4.38
327.919	8.38
328.051	-3.62
328.182	26.38
328.314	13.38
328.446	-15.62
328.577	19.38
328.709	-1.62
328.841	-30.62
328.972	-13.62
329.104	2.38
329.235	2.38
329.367	2.38
329.499	17.38
329.63	1.38
329.762	-10.62
329.893	2.38
330.025	3.38
330.156	-18.62
330.288	-0.62
330.419	17.38
330.551	-1.62
330.683	-3.62
330.814	-3.62
330.946	6.38
331.077	-12.62
331.208	-11.62
331.34	-23.62
331.471	-16.62
331.603	-5.62
331.734	-5.62
331.866	12.38
331.997	11.38
332.129	-0.62
332.26	-0.62
332.392	-2.62
332.523	-5.62
332.654	-2.62
332.786	-4.62
332.917	0.38
333.048	11.38
333.18	17.38
333.311	-15.62
333.443	-5.62
333.574	-7.62
333.705	0.38
333.837	-18.62
333.968	0.38
334.099	11.38
334.231	14.38
334.362	-3.62
334.493	1.38
334.624	22.38
334.756	8.38
334.887	2.38
335.018	-11.62
335.15	-2.62
335.281	-6.62
335.412	9.38
335.543	-6.62
335.675	6.38
335.806	-5.62
335.937	3.38
336.068	15.38
336.199	26.38
336.331	-1.62
336.462	5.38
336.593	17.38
336.724	6.38
336.855	-11.62
336.986	-5.62
337.118	16.38
337.249	13.38
337.38	-8.62
337.511	-22.62
337.642	-15.62
337.773	-4.62
337.904	13.38
338.035	9.38
338.166	8.38
338.298	1.38
338.429	9.38
338.56	19.38
338.691	13.38
338.822	7.38
338.953	-4.62
339.084	16.38
339.215	27.38
339.346	2.38
339.477	1.38
339.608	3.38
339.739	-11.62
339.87	-14.62
340.001	0.38
340.132	11.38
340.263	3.38
340.394	1.38
340.525	14.38
340.656	-0.62
340.787	3.38
340.918	13.38
341.049	9.38
341.179	15.38
341.31	-13.62
341.441	4.38
341.572	24.38
341.703	10.38
341.834	-18.62
341.965	13.38
342.096	-20.62
342.227	-7.62
342.357	-8.62
342.488	14.38
342.619	6.38
342.75	20.38
342.881	-7.62
343.012	16.38
343.142	22.38
343.273	-20.62
343.404	14.38
343.535	21.38
343.666	0.38
343.796	18.38
343.927	12.38
344.058	26.38
344.189	17.38
344.319	1.38
344.45	5.38
344.581	-12.62
344.712	-6.62
344.842	-1.62
344.973	-14.62
345.104	6.38
345.234	3.38
345.365	-11.62
345.496	0.38
345.626	-5.62
345.757	12.38
345.888	-7.62
346.018	6.38
346.149	-3.62
346.28	12.38
346.41	-5.62
346.541	6.38
346.672	13.38
346.802	14.38
346.933	11.38
347.063	15.38
347.194	-12.62
347.325	-2.62
347.455	4.38
347.586	3.38
347.716	-0.62
347.847	0.38
347.977	9.38
348.108	27.38
348.238	0.38
348.369	-10.62
348.499	11.38
348.63	4.38
348.76	3.38
348.891	-3.62
349.021	19.38
349.152	7.38
349.282	18.38
349.413	-0.62
349.543	6.38
349.674	-1.62
349.804	6.38
349.935	0.38
350.065	4.38
350.196	-12.62
350.326	-7.62
350.456	0.38
350.587	16.38
350.717	5.38
350.848	-21.62
350.978	-11.62
351.108	-15.62
351.239	-4.62
351.369	-4.62
351.499	-3.62
351.63	1.38
351.76	-2.62
351.89	2.38
352.021	0.38
352.151	-9.62
352.281	7.38
352.412	23.38
352.542	0.38
352.672	10.38
352.803	5.38
352.933	11.38
353.063	-8.62
353.193	9.38
353.324	6.38
353.454	11.38
353.584	33.38
353.714	-9.62
353.845	1.38
353.975	-5.62
354.105	-7.62
354.235	15.38
354.365	-6.62
354.496	-2.62
354.626	9.38
354.756	7.38
354.886	3.38
355.016	10.38
355.146	6.38
355.277	8.38
355.407	-0.62
355.537	3.38
355.667	-4.62
355.797	-1.62
355.927	-6.62
356.057	-0.62
356.187	-3.62
356.318	-17.62
356.448	4.38
356.578	11.38
356.708	7.38
356.838	15.38
356.968	-12.62
357.098	-7.62
357.228	2.38
357.358	3.38
357.488	-12.62
357.618	18.38
357.748	11.38
357.878	8.38
358.008	7.38
358.138	2.38
358.268	6.38
358.398	10.38
358.528	-3.62
358.658	4.38
358.788	8.38
358.918	17.38
359.048	5.38
359.178	21.38
359.308	10.38
359.438	6.38
359.568	15.38
359.698	11.38
359.827	11.38
359.957	7.38
360.087	-6.62
360.217	6.38
360.347	14.38
360.477	0.38
360.607	-0.62
360.737	24.38
360.866	-7.62
360.996	-6.62
361.126	2.38
361.256	17.38
361.386	13.38
361.516	9.38
361.645	-17.62
361.775	1.38
361.905	-21.62
362.035	-5.62
362.165	1.38
362.294	4.38
362.424	22.38
362.554	14.38
362.684	-2.62
362.813	6.38
362.943	11.38
363.073	9.38
363.203	-8.62
363.332	9.38
363.462	-2.62
363.592	-8.62
363.721	-13.62
363.851	-15.62
363.981	26.38
364.111	5.38
364.24	-16.62
364.37	11.38
364.5	22.38
364.629	31.38
364.759	-23.62
364.888	-19.62
365.018	-1.62
365.148	1.38
365.277	1.38
365.407	-6.62
365.537	7.38
365.666	20.38
365.796	-8.62
365.925	13.38
366.055	11.38
366.184	9.38
366.314	3.38
366.444	1.38
366.573	4.38
366.703	-3.62
366.832	6.38
366.962	-0.62
367.091	17.38
367.221	2.38
367.35	-4.62
367.48	42.38
367.609	8.38
367.739	-6.62
367.868	-1.62
367.998	1.38
368.127	18.38
368.257	16.38
368.386	12.38
368.516	2.38
368.645	1.38
368.775	17.38
368.904	11.38
369.033	-19.62
369.163	-11.62
369.292	21.38
369.422	10.38
369.551	1.38
369.68	5.38
369.81	-1.62
369.939	-11.62
370.069	24.38
370.198	-3.62
370.327	-15.62
370.457	-8.62
370.586	-2.62
370.715	-4.62
370.845	-7.62
370.974	15.38
371.103	4.38
371.233	2.38
371.362	14.38
371.491	5.38
371.621	15.38
371.75	-8.62
371.879	-10.62
372.008	-0.62
372.138	8.38
372.267	8.38
372.396	13.38
372.525	-5.62
372.655	3.38
372.784	-2.62
372.913	-1.62
373.042	10.38
373.172	6.38
373.301	-28.62
373.43	-16.62
373.559	1.38
373.688	4.38
373.818	17.38
373.947	25.38
374.076	-14.62
374.205	0.38
374.334	-6.62
374.463	-7.62
374.593	25.38
374.722	21.38
374.851	14.38
374.98	-14.62
375.109	13.38
375.238	16.38
375.367	20.38
375.496	-20.62
375.625	-1.62
375.755	24.38
375.884	24.38
376.013	6.38
376.142	-22.62
376.271	-6.62
376.4	7.38
376.529	15.38
376.658	-11.62
376.787	-0.62
376.916	1.38
377.045	3.38
377.174	11.38
377.303	-1.62
377.432	26.38
377.561	18.38
377.69	-4.62
377.819	19.38
377.948	6.38
378.077	-17.62
378.206	-9.62
378.335	7.38
378.464	-8.62
378.593	32.38
378.722	-0.62
378.851	-21.62
378.98	4.38
379.108	-30.62
379.237	-1.62
379.366	14.38
379.495	1.38
379.624	7.38
379.753	1.38
379.882	2.38
380.011	-12.62
380.14	-10.62
380.268	13.38
380.397	-11.62
380.526	10.38
380.655	-10.62
380.784	-13.62
380.913	-7.62
381.041	6.38
381.17	-21.62
381.299	3.38
381.428	6.38
381.557	11.38
381.685	1.38
381.814	23.38
381.943	0.38
382.072	4.38
382.2	-4.62
382.329	-4.62
382.458	4.38
382.587	24.38
382.715	21.38
382.844	4.38
382.973	4.38
383.102	5.38
383.23	-8.62
383.359	2.38
383.488	29.38
383.616	13.38
383.745	-29.62
383.874	2.38
384.003	-0.62
384.131	-4.62
384.26	-1.62
384.389	-10.62
384.517	-15.62
384.646	-16.62
384.774	-14.62
384.903	24.38
385.032	17.38
385.16	4.38
385.289	2.38
385.418	3.38
385.546	-8.62
385.675	0.38
385.803	-10.62
385.932	5.38
386.06	8.38
386.189	-2.62
386.318	23.38
386.446	-8.62
386.575	-4.62
386.703	16.38
386.832	-3.62
386.96	-18.62
387.089	11.38
387.217	6.38
387.346	2.38
387.474	0.38
387.603	2.38
387.731	-7.62
387.86	12.38
387.988	-0.62
388.117	2.38
388.245	-4.62
388.374	-15.62
388.502	16.38
388.631	-7.62
388.759	3.38
388.888	2.38
389.016	-20.62
389.144	8.38
389.273	-2.62
389.401	-5.62
389.53	-9.62
389.658	21.38
389.786	-6.62
389.915	-33.62
390.043	-19.62
390.172	7.38
390.3	29.38
390.428	25.38
390.557	11.38
390.685	-2.62
390.813	-2.62
390.942	17.38
391.07	-11.62
391.198	-5.62
391.327	0.38
391.455	-1.62
391.583	16.38
391.712	11.38
391.84	10.38
391.968	-18.62
392.096	-17.62
392.225	-7.62
392.353	15.38
392.481	-15.62
392.609	-12.62
392.738	14.38
392.866	6.38
392.994	-15.62
393.122	20.38
393.251	7.38
393.379	-16.62
393.507	-22.62
393.635	-4.62
393.764	-5.62
393.892	11.38
394.02	-4.62
394.148	-11.62
394.276	-2.62
394.404	10.38
394.533	7.38
394.661	-2.62
394.789	15.38
394.917	11.38
395.045	-12.62
395.173	-15.62
395.302	-15.62
395.43	14.38
395.558	19.38
395.686	9.38
395.814	20.38
395.942	-5.62
396.07	-4.62
396.198	2.38
396.326	17.38
396.454	17.38
396.582	-4.62
396.711	-6.62
396.839	2.38
396.967	4.38
397.095	8.38
397.223	3.38
397.351	17.38
397.479	8.38
397.607	25.38
397.735	-16.62
397.863	11.38
397.991	12.38
398.119	-1.62
398.247	18.38
398.375	-9.62
398.503	-3.62
398.631	18.38
398.759	3.38
398.887	-3.62
399.015	-3.62
399.143	3.38
399.271	14.38
399.399	17.38
399.526	-1.62
399.654	5.38
399.782	-8.62
399.91	6.38
400.038	17.38
400.166	-1.62
400.294	10.38
400.422	-14.62
400.55	16.38
400.678	-0.62
400.805	-3.62
400.933	10.38
401.061	9.38
401.189	-6.62
401.317	10.38
401.445	12.38
401.573	30.38
401.7	10.38
401.828	-15.62
401.956	-5.62
402.084	-5.62
402.212	-8.62
402.34	9.38
402.467	16.38
402.595	3.38
402.723	14.38
402.851	15.38
402.978	0.38
403.106	16.38
403.234	17.38
403.362	17.38
403.489	18.38
403.617	18.38
403.745	26.38
403.873	1.38
404	15.38
404.128	18.38
404.256	5.38
404.384	12.38
404.511	22.38
404.639	-1.62
404.767	-13.62
404.894	2.38
405.022	0.38
405.15	12.38
405.277	-5.62
405.405	4.38
405.533	-7.62
405.66	-2.62
405.788	-19.62
405.916	-18.62
406.043	-27.62
406.171	-15.62
406.299	9.38
406.426	5.38
406.554	-1.62
406.681	37.38
406.809	1.38
406.937	5.38
407.064	-3.62
407.192	16.38
407.319	4.38
407.447	-1.62
407.574	19.38
407.702	7.38
407.83	-13.62
407.957	-12.62
408.085	3.38
408.212	21.38
408.34	4.38
408.467	13.38
408.595	8.38
408.722	24.38
408.85	23.38
408.977	-5.62
409.105	-9.62
409.232	4.38
409.36	10.38
409.487	7.38
409.615	0.38
409.742	9.38
409.87	26.38
409.997	30.38
410.125	18.38
410.252	52.38
410.379	32.38
410.507	38.38
410.634	0.38
410.762	-5.62
410.889	11.38
411.017	-4.62
411.144	22.38
411.271	-0.62
411.399	13.38
411.526	5.38
411.653	10.38
411.781	28.38
411.908	21.38
412.036	-5.62
412.163	15.38
412.29	16.38
412.418	15.38
412.545	16.38
412.672	3.38
412.8	22.38
412.927	17.38
413.054	33.38
413.182	12.38
413.309	6.38
413.436	-10.62
413.564	-2.62
413.691	2.38
413.818	27.38
413.945	-0.62
414.073	-6.62
414.2	-5.62
414.327	14.38
414.454	-1.62
414.582	3.38
414.709	-1.62
414.836	-10.62
414.963	-8.62
415.091	4.38
415.218	-0.62
415.345	-4.62
415.472	-13.62
415.6	-3.62
415.727	-2.62
415.854	13.38
415.981	-4.62
416.108	6.38
416.236	10.38
416.363	25.38
416.49	10.38
416.617	10.38
416.744	14.38
416.871	-1.62
416.998	4.38
417.126	19.38
417.253	1.38
417.38	-6.62
417.507	2.38
417.634	6.38
417.761	15.38
417.888	10.38
418.015	-2.62
418.143	-6.62
418.27	22.38
418.397	3.38
418.524	-5.62
418.651	-3.62
418.778	10.38
418.905	28.38
419.032	2.38
419.159	-8.62
419.286	29.38
419.413	14.38
