Data from LowRes_H2_15_26_11_07_2024_HR4C61881__2__15-28-13-837.txt Node

Date: Thu Nov 07 15:28:13 EST 2024
User: crc00042
Spectrometer: HR4C6188
Trigger mode: 4
Integration Time (sec): 1.000000E-1
Scans to average: 1
Electric dark correction enabled: true
Nonlinearity correction enabled: false
Boxcar width: 0
XAxis mode: Wavelengths
Number of Pixels in Spectrum: 3648
>>>>>Begin Spectral Data<<<<<
245.66	-98.77
245.797	-98.77
245.934	-98.77
246.071	-64.77
246.208	11.23
246.344	14.23
246.481	-15.77
246.618	-5.77
246.755	23.23
246.892	-21.77
247.029	-5.77
247.165	-15.77
247.302	13.23
247.439	2.23
247.576	13.23
247.713	-11.77
247.849	20.23
247.986	-9.77
248.123	10.23
248.26	1.23
248.396	14.23
248.533	4.23
248.67	14.23
248.806	15.23
248.943	-16.77
249.08	-6.77
249.216	15.23
249.353	-11.77
249.49	-15.77
249.626	-1.77
249.763	2.23
249.9	-16.77
250.036	6.23
250.173	4.23
250.309	-1.77
250.446	0.23
250.582	-5.77
250.719	-7.77
250.856	-5.77
250.992	-17.77
251.129	-12.77
251.265	-4.77
251.402	1.23
251.538	-10.77
251.675	-9.77
251.811	21.23
251.948	22.23
252.084	0.23
252.221	-2.77
252.357	-14.77
252.493	19.23
252.63	10.23
252.766	0.23
252.903	7.23
253.039	-7.77
253.175	1.23
253.312	2.23
253.448	-3.77
253.585	-12.77
253.721	11.23
253.857	-8.77
253.994	13.23
254.13	-11.77
254.266	-13.77
254.403	-7.77
254.539	-24.77
254.675	-1.77
254.811	5.23
254.948	-0.77
255.084	-4.77
255.22	-8.77
255.356	-2.77
255.493	9.23
255.629	8.23
255.765	-5.77
255.901	14.23
256.037	5.23
256.174	0.23
256.31	-1.77
256.446	2.23
256.582	-2.77
256.718	24.23
256.854	-0.77
256.991	22.23
257.127	16.23
257.263	5.23
257.399	18.23
257.535	-11.77
257.671	7.23
257.807	-14.77
257.943	-23.77
258.079	4.23
258.215	-6.77
258.351	0.23
258.487	-2.77
258.623	24.23
258.759	-3.77
258.895	-9.77
259.031	2.23
259.167	-3.77
259.303	4.23
259.439	-12.77
259.575	-2.77
259.711	-4.77
259.847	-9.77
259.983	7.23
260.119	-19.77
260.255	-9.77
260.391	-4.77
260.527	12.23
260.663	9.23
260.799	13.23
260.934	-14.77
261.07	-20.77
261.206	-3.77
261.342	-12.77
261.478	6.23
261.614	15.23
261.749	4.23
261.885	1.23
262.021	0.23
262.157	3.23
262.293	0.23
262.428	-1.77
262.564	-6.77
262.7	-10.77
262.836	-4.77
262.971	11.23
263.107	11.23
263.243	17.23
263.378	-9.77
263.514	-12.77
263.65	-5.77
263.785	2.23
263.921	3.23
264.057	-1.77
264.192	13.23
264.328	7.23
264.464	-18.77
264.599	-3.77
264.735	10.23
264.871	-14.77
265.006	1.23
265.142	-9.77
265.277	6.23
265.413	9.23
265.548	14.23
265.684	8.23
265.819	-4.77
265.955	-8.77
266.091	-2.77
266.226	0.23
266.362	14.23
266.497	11.23
266.633	-3.77
266.768	-2.77
266.903	21.23
267.039	18.23
267.174	23.23
267.31	4.23
267.445	-10.77
267.581	-10.77
267.716	8.23
267.851	9.23
267.987	-6.77
268.122	16.23
268.258	-0.77
268.393	9.23
268.528	21.23
268.664	12.23
268.799	-13.77
268.934	1.23
269.07	-3.77
269.205	11.23
269.34	25.23
269.476	-2.77
269.611	-15.77
269.746	19.23
269.881	18.23
270.017	16.23
270.152	6.23
270.287	16.23
270.422	24.23
270.558	-6.77
270.693	-11.77
270.828	-6.77
270.963	-7.77
271.098	-2.77
271.234	6.23
271.369	21.23
271.504	11.23
271.639	-30.77
271.774	2.23
271.909	3.23
272.045	-7.77
272.18	-1.77
272.315	-14.77
272.45	3.23
272.585	-6.77
272.72	3.23
272.855	16.23
272.99	21.23
273.125	-8.77
273.26	-7.77
273.395	0.23
273.53	10.23
273.665	9.23
273.8	10.23
273.935	-7.77
274.07	0.23
274.205	-6.77
274.34	2.23
274.475	1.23
274.61	12.23
274.745	8.23
274.88	28.23
275.015	7.23
275.15	4.23
275.285	18.23
275.42	-7.77
275.555	8.23
275.69	-3.77
275.825	-7.77
275.959	13.23
276.094	3.23
276.229	12.23
276.364	-3.77
276.499	11.23
276.634	17.23
276.768	-2.77
276.903	-4.77
277.038	6.23
277.173	17.23
277.308	1.23
277.442	-3.77
277.577	-4.77
277.712	13.23
277.847	4.23
277.981	7.23
278.116	-11.77
278.251	-2.77
278.386	-6.77
278.52	21.23
278.655	8.23
278.79	11.23
278.924	6.23
279.059	9.23
279.194	-2.77
279.328	28.23
279.463	5.23
279.598	31.23
279.732	2.23
279.867	21.23
280.001	20.23
280.136	8.23
280.271	-0.77
280.405	14.23
280.54	10.23
280.674	-23.77
280.809	13.23
280.943	-5.77
281.078	-7.77
281.213	14.23
281.347	11.23
281.482	5.23
281.616	-5.77
281.751	-6.77
281.885	-15.77
282.02	11.23
282.154	10.23
282.288	-22.77
282.423	-10.77
282.557	-30.77
282.692	-2.77
282.826	23.23
282.961	6.23
283.095	11.23
283.229	8.23
283.364	-11.77
283.498	3.23
283.633	18.23
283.767	-1.77
283.901	7.23
284.036	25.23
284.17	3.23
284.304	-16.77
284.439	4.23
284.573	4.23
284.707	17.23
284.842	-0.77
284.976	-6.77
285.11	-12.77
285.244	17.23
285.379	34.23
285.513	5.23
285.647	19.23
285.781	3.23
285.916	17.23
286.05	-6.77
286.184	28.23
286.318	16.23
286.453	-15.77
286.587	1.23
286.721	-12.77
286.855	5.23
286.989	1.23
287.123	-5.77
287.258	-0.77
287.392	-1.77
287.526	8.23
287.66	-13.77
287.794	1.23
287.928	0.23
288.062	6.23
288.196	-10.77
288.33	7.23
288.464	20.23
288.598	14.23
288.733	-1.77
288.867	9.23
289.001	17.23
289.135	5.23
289.269	-15.77
289.403	0.23
289.537	-10.77
289.671	-4.77
289.805	-7.77
289.939	18.23
290.073	-15.77
290.207	-9.77
290.34	-3.77
290.474	16.23
290.608	1.23
290.742	-0.77
290.876	1.23
291.01	1.23
291.144	17.23
291.278	13.23
291.412	-2.77
291.546	-0.77
291.679	0.23
291.813	0.23
291.947	3.23
292.081	-16.77
292.215	4.23
292.349	6.23
292.482	0.23
292.616	0.23
292.75	-4.77
292.884	13.23
293.018	-7.77
293.151	-15.77
293.285	15.23
293.419	-3.77
293.553	0.23
293.686	-18.77
293.82	17.23
293.954	26.23
294.088	31.23
294.221	-8.77
294.355	-11.77
294.489	0.23
294.622	-6.77
294.756	-4.77
294.89	7.23
295.023	7.23
295.157	11.23
295.291	11.23
295.424	21.23
295.558	-4.77
295.691	12.23
295.825	-5.77
295.959	-6.77
296.092	6.23
296.226	-7.77
296.359	7.23
296.493	18.23
296.627	10.23
296.76	16.23
296.894	3.23
297.027	-13.77
297.161	0.23
297.294	-27.77
297.428	0.23
297.561	26.23
297.695	0.23
297.828	3.23
297.962	21.23
298.095	8.23
298.229	10.23
298.362	-21.77
298.495	-25.77
298.629	7.23
298.762	10.23
298.896	5.23
299.029	-11.77
299.162	0.23
299.296	4.23
299.429	-14.77
299.563	9.23
299.696	7.23
299.829	6.23
299.963	11.23
300.096	11.23
300.229	-1.77
300.363	-10.77
300.496	-0.77
300.629	-28.77
300.763	-7.77
300.896	13.23
301.029	14.23
301.162	20.23
301.296	-4.77
301.429	-3.77
301.562	-4.77
301.695	1.23
301.829	6.23
301.962	32.23
302.095	7.23
302.228	-6.77
302.362	10.23
302.495	-0.77
302.628	1.23
302.761	4.23
302.894	3.23
303.027	9.23
303.161	-7.77
303.294	-19.77
303.427	13.23
303.56	17.23
303.693	7.23
303.826	-6.77
303.959	-12.77
304.092	-0.77
304.225	-24.77
304.359	-22.77
304.492	17.23
304.625	4.23
304.758	-2.77
304.891	-14.77
305.024	-3.77
305.157	-10.77
305.29	-29.77
305.423	-4.77
305.556	13.23
305.689	24.23
305.822	-8.77
305.955	3.23
306.088	-3.77
306.221	-2.77
306.354	-5.77
306.487	-16.77
306.62	-21.77
306.752	-8.77
306.885	-1.77
307.018	7.23
307.151	3.23
307.284	21.23
307.417	-1.77
307.55	-2.77
307.683	-0.77
307.816	11.23
307.948	-3.77
308.081	8.23
308.214	6.23
308.347	18.23
308.48	-0.77
308.613	-6.77
308.745	25.23
308.878	-12.77
309.011	-0.77
309.144	-6.77
309.277	10.23
309.409	14.23
309.542	17.23
309.675	24.23
309.808	17.23
309.94	30.23
310.073	-15.77
310.206	-7.77
310.339	3.23
310.471	-28.77
310.604	17.23
310.737	-5.77
310.869	-5.77
311.002	10.23
311.135	5.23
311.267	-20.77
311.4	-7.77
311.533	28.23
311.665	3.23
311.798	11.23
311.93	9.23
312.063	-4.77
312.196	-14.77
312.328	2.23
312.461	5.23
312.593	1.23
312.726	10.23
312.859	8.23
312.991	5.23
313.124	-19.77
313.256	16.23
313.389	8.23
313.521	-4.77
313.654	-7.77
313.786	-11.77
313.919	-19.77
314.051	-11.77
314.184	-10.77
314.316	4.23
314.449	-14.77
314.581	3.23
314.714	-9.77
314.846	5.23
314.978	-14.77
315.111	-20.77
315.243	0.23
315.376	0.23
315.508	15.23
315.641	-7.77
315.773	15.23
315.905	-2.77
316.038	-2.77
316.17	-2.77
316.302	16.23
316.435	17.23
316.567	-6.77
316.699	19.23
316.832	-11.77
316.964	6.23
317.096	1.23
317.229	-2.77
317.361	-7.77
317.493	-17.77
317.625	-15.77
317.758	13.23
317.89	3.23
318.022	-6.77
318.155	6.23
318.287	12.23
318.419	10.23
318.551	-14.77
318.683	9.23
318.816	4.23
318.948	-4.77
319.08	-7.77
319.212	-4.77
319.344	-5.77
319.477	-6.77
319.609	10.23
319.741	11.23
319.873	7.23
320.005	3.23
320.137	-12.77
320.269	1.23
320.401	-7.77
320.534	0.23
320.666	-13.77
320.798	-8.77
320.93	0.23
321.062	-10.77
321.194	1.23
321.326	3.23
321.458	-11.77
321.59	-7.77
321.722	-16.77
321.854	-12.77
321.986	17.23
322.118	12.23
322.25	-9.77
322.382	-7.77
322.514	-20.77
322.646	-12.77
322.778	20.23
322.91	0.23
323.042	6.23
323.174	1.23
323.306	-3.77
323.438	-23.77
323.57	16.23
323.702	-3.77
323.834	1.23
323.966	-3.77
324.097	-5.77
324.229	7.23
324.361	8.23
324.493	10.23
324.625	-8.77
324.757	13.23
324.889	-1.77
325.021	18.23
325.152	18.23
325.284	9.23
325.416	-2.77
325.548	0.23
325.68	-7.77
325.811	35.23
325.943	7.23
326.075	-4.77
326.207	4.23
326.339	11.23
326.47	-6.77
326.602	13.23
326.734	21.23
326.866	7.23
326.997	-11.77
327.129	-0.77
327.261	-33.77
327.392	-3.77
327.524	5.23
327.656	-1.77
327.787	-2.77
327.919	-13.77
328.051	0.23
328.182	31.23
328.314	17.23
328.446	9.23
328.577	27.23
328.709	14.23
328.841	-13.77
328.972	2.23
329.104	-7.77
329.235	10.23
329.367	2.23
329.499	17.23
329.63	2.23
329.762	-12.77
329.893	-6.77
330.025	-8.77
330.156	-19.77
330.288	12.23
330.419	12.23
330.551	12.23
330.683	-4.77
330.814	-8.77
330.946	18.23
331.077	-15.77
331.208	-7.77
331.34	-3.77
331.471	-8.77
331.603	-6.77
331.734	-22.77
331.866	-2.77
331.997	-2.77
332.129	9.23
332.26	1.23
332.392	19.23
332.523	-0.77
332.654	-20.77
332.786	-10.77
332.917	-11.77
333.048	5.23
333.18	16.23
333.311	-15.77
333.443	-12.77
333.574	6.23
333.705	32.23
333.837	-6.77
333.968	4.23
334.099	14.23
334.231	21.23
334.362	4.23
334.493	3.23
334.624	16.23
334.756	10.23
334.887	7.23
335.018	13.23
335.15	12.23
335.281	-4.77
335.412	29.23
335.543	10.23
335.675	2.23
335.806	16.23
335.937	-11.77
336.068	11.23
336.199	38.23
336.331	-2.77
336.462	11.23
336.593	10.23
336.724	-12.77
336.855	5.23
336.986	0.23
337.118	8.23
337.249	14.23
337.38	17.23
337.511	9.23
337.642	24.23
337.773	-2.77
337.904	9.23
338.035	1.23
338.166	-4.77
338.298	11.23
338.429	-2.77
338.56	16.23
338.691	24.23
338.822	-0.77
338.953	6.23
339.084	17.23
339.215	18.23
339.346	13.23
339.477	-0.77
339.608	0.23
339.739	6.23
339.87	-9.77
340.001	4.23
340.132	3.23
340.263	7.23
340.394	8.23
340.525	9.23
340.656	-8.77
340.787	-26.77
340.918	12.23
341.049	7.23
341.179	1.23
341.31	4.23
341.441	1.23
341.572	23.23
341.703	10.23
341.834	-12.77
341.965	16.23
342.096	5.23
342.227	-1.77
342.357	-3.77
342.488	-5.77
342.619	2.23
342.75	-8.77
342.881	-6.77
343.012	25.23
343.142	20.23
343.273	4.23
343.404	-7.77
343.535	25.23
343.666	18.23
343.796	12.23
343.927	-3.77
344.058	32.23
344.189	11.23
344.319	15.23
344.45	5.23
344.581	6.23
344.712	-12.77
344.842	-3.77
344.973	4.23
345.104	15.23
345.234	4.23
345.365	-17.77
345.496	2.23
345.626	17.23
345.757	16.23
345.888	-9.77
346.018	3.23
346.149	-6.77
346.28	8.23
346.41	-18.77
346.541	5.23
346.672	-8.77
346.802	2.23
346.933	-6.77
347.063	2.23
347.194	-2.77
347.325	24.23
347.455	23.23
347.586	10.23
347.716	-8.77
347.847	2.23
347.977	-4.77
348.108	16.23
348.238	-2.77
348.369	6.23
348.499	-2.77
348.63	-3.77
348.76	4.23
348.891	5.23
349.021	16.23
349.152	11.23
349.282	23.23
349.413	-2.77
349.543	19.23
349.674	-12.77
349.804	11.23
349.935	0.23
350.065	-4.77
350.196	8.23
350.326	17.23
350.456	4.23
350.587	39.23
350.717	13.23
350.848	20.23
350.978	14.23
351.108	-27.77
351.239	23.23
351.369	0.23
351.499	12.23
351.63	-6.77
351.76	11.23
351.89	-13.77
352.021	7.23
352.151	-5.77
352.281	5.23
352.412	10.23
352.542	5.23
352.672	1.23
352.803	11.23
352.933	-2.77
353.063	8.23
353.193	14.23
353.324	-3.77
353.454	-1.77
353.584	25.23
353.714	-6.77
353.845	-3.77
353.975	-9.77
354.105	-4.77
354.235	-3.77
354.365	2.23
354.496	-1.77
354.626	-7.77
354.756	17.23
354.886	2.23
355.016	5.23
355.146	-12.77
355.277	4.23
355.407	-5.77
355.537	17.23
355.667	29.23
355.797	6.23
355.927	-15.77
356.057	-3.77
356.187	6.23
356.318	-8.77
356.448	-0.77
356.578	-18.77
356.708	4.23
356.838	7.23
356.968	-4.77
357.098	-2.77
357.228	5.23
357.358	-5.77
357.488	-5.77
357.618	14.23
357.748	19.23
357.878	3.23
358.008	-5.77
358.138	-1.77
358.268	6.23
358.398	16.23
358.528	-18.77
358.658	-2.77
358.788	2.23
358.918	8.23
359.048	13.23
359.178	14.23
359.308	16.23
359.438	11.23
359.568	9.23
359.698	-6.77
359.827	12.23
359.957	1.23
360.087	-11.77
360.217	-6.77
360.347	-2.77
360.477	8.23
360.607	5.23
360.737	13.23
360.866	-12.77
360.996	-20.77
361.126	-3.77
361.256	21.23
361.386	22.23
361.516	16.23
361.645	-12.77
361.775	0.23
361.905	-15.77
362.035	9.23
362.165	12.23
362.294	12.23
362.424	6.23
362.554	9.23
362.684	-8.77
362.813	9.23
362.943	37.23
363.073	7.23
363.203	5.23
363.332	-6.77
363.462	-4.77
363.592	-15.77
363.721	-21.77
363.851	-10.77
363.981	17.23
364.111	-4.77
364.24	-16.77
364.37	14.23
364.5	26.23
364.629	-2.77
364.759	-14.77
364.888	-10.77
365.018	10.23
365.148	11.23
365.277	13.23
365.407	10.23
365.537	0.23
365.666	-3.77
365.796	6.23
365.925	5.23
366.055	0.23
366.184	-11.77
366.314	-12.77
366.444	4.23
366.573	21.23
366.703	-1.77
366.832	19.23
366.962	-0.77
367.091	10.23
367.221	9.23
367.35	4.23
367.48	44.23
367.609	4.23
367.739	8.23
367.868	-24.77
367.998	11.23
368.127	13.23
368.257	14.23
368.386	25.23
368.516	6.23
368.645	12.23
368.775	-0.77
368.904	13.23
369.033	-6.77
369.163	3.23
369.292	8.23
369.422	25.23
369.551	10.23
369.68	17.23
369.81	16.23
369.939	-0.77
370.069	21.23
370.198	13.23
370.327	-5.77
370.457	-0.77
370.586	13.23
370.715	8.23
370.845	-4.77
370.974	11.23
371.103	28.23
371.233	20.23
371.362	25.23
371.491	-5.77
371.621	9.23
371.75	5.23
371.879	-13.77
372.008	16.23
372.138	3.23
372.267	27.23
372.396	13.23
372.525	12.23
372.655	-11.77
372.784	-3.77
372.913	0.23
373.042	16.23
373.172	23.23
373.301	-0.77
373.43	1.23
373.559	4.23
373.688	18.23
373.818	14.23
373.947	5.23
374.076	2.23
374.205	16.23
374.334	4.23
374.463	-3.77
374.593	12.23
374.722	22.23
374.851	17.23
374.98	4.23
375.109	-0.77
375.238	22.23
375.367	29.23
375.496	-22.77
375.625	-11.77
375.755	13.23
375.884	19.23
376.013	17.23
376.142	-7.77
376.271	-9.77
376.4	11.23
376.529	3.23
376.658	2.23
376.787	11.23
376.916	12.23
377.045	17.23
377.174	7.23
377.303	8.23
377.432	15.23
377.561	8.23
377.69	-0.77
377.819	22.23
377.948	-8.77
378.077	-10.77
378.206	2.23
378.335	-2.77
378.464	4.23
378.593	19.23
378.722	-10.77
378.851	-3.77
378.98	7.23
379.108	-9.77
379.237	-8.77
379.366	10.23
379.495	5.23
379.624	6.23
379.753	7.23
379.882	4.23
380.011	11.23
380.14	-7.77
380.268	-1.77
380.397	-2.77
380.526	24.23
380.655	-10.77
380.784	-37.77
380.913	-3.77
381.041	13.23
381.17	-11.77
381.299	-6.77
381.428	3.23
381.557	5.23
381.685	-7.77
381.814	9.23
381.943	16.23
382.072	-5.77
382.2	-8.77
382.329	6.23
382.458	6.23
382.587	35.23
382.715	19.23
382.844	23.23
382.973	12.23
383.102	19.23
383.23	-0.77
383.359	-9.77
383.488	15.23
383.616	-6.77
383.745	-21.77
383.874	17.23
384.003	4.23
384.131	-12.77
384.26	-1.77
384.389	5.23
384.517	8.23
384.646	-6.77
384.774	0.23
384.903	25.23
385.032	12.23
385.16	8.23
385.289	-7.77
385.418	2.23
385.546	8.23
385.675	18.23
385.803	-4.77
385.932	6.23
386.06	-11.77
386.189	-4.77
386.318	-16.77
386.446	-14.77
386.575	4.23
386.703	19.23
386.832	5.23
386.96	-13.77
387.089	23.23
387.217	7.23
387.346	3.23
387.474	-8.77
387.603	5.23
387.731	4.23
387.86	19.23
387.988	3.23
388.117	18.23
388.245	21.23
388.374	7.23
388.502	14.23
388.631	2.23
388.759	-10.77
388.888	20.23
389.016	-4.77
389.144	7.23
389.273	8.23
389.401	-5.77
389.53	-10.77
389.658	9.23
389.786	-23.77
389.915	-16.77
390.043	-13.77
390.172	-6.77
390.3	9.23
390.428	15.23
390.557	4.23
390.685	13.23
390.813	16.23
390.942	29.23
391.07	15.23
391.198	-5.77
391.327	-5.77
391.455	-19.77
391.583	13.23
391.712	23.23
391.84	14.23
391.968	16.23
392.096	1.23
392.225	-8.77
392.353	29.23
392.481	3.23
392.609	28.23
392.738	12.23
392.866	26.23
392.994	3.23
393.122	22.23
393.251	5.23
393.379	-3.77
393.507	10.23
393.635	0.23
393.764	1.23
393.892	9.23
394.02	-3.77
394.148	3.23
394.276	9.23
394.404	22.23
394.533	-1.77
394.661	16.23
394.789	12.23
394.917	26.23
395.045	2.23
395.173	6.23
395.302	-1.77
395.43	3.23
395.558	26.23
395.686	17.23
395.814	21.23
395.942	-3.77
396.07	0.23
396.198	0.23
396.326	1.23
396.454	12.23
396.582	6.23
396.711	-0.77
396.839	15.23
396.967	16.23
397.095	5.23
397.223	22.23
397.351	16.23
397.479	28.23
397.607	11.23
397.735	15.23
397.863	4.23
397.991	-2.77
398.119	-7.77
398.247	16.23
398.375	-6.77
398.503	0.23
398.631	20.23
398.759	3.23
398.887	11.23
399.015	-3.77
399.143	-18.77
399.271	1.23
399.399	5.23
399.526	7.23
399.654	19.23
399.782	-15.77
399.91	19.23
400.038	33.23
400.166	5.23
400.294	-3.77
400.422	-16.77
400.55	0.23
400.678	9.23
400.805	-8.77
400.933	14.23
401.061	-4.77
401.189	8.23
401.317	-2.77
401.445	25.23
401.573	15.23
401.7	12.23
401.828	-5.77
401.956	-23.77
402.084	9.23
402.212	9.23
402.34	18.23
402.467	13.23
402.595	9.23
402.723	-5.77
402.851	12.23
402.978	2.23
403.106	20.23
403.234	-2.77
403.362	26.23
403.489	-1.77
403.617	2.23
403.745	-0.77
403.873	-7.77
404	23.23
404.128	10.23
404.256	8.23
404.384	23.23
404.511	3.23
404.639	-4.77
404.767	-1.77
404.894	10.23
405.022	11.23
405.15	22.23
405.277	1.23
405.405	-4.77
405.533	8.23
405.66	8.23
405.788	-10.77
405.916	-10.77
406.043	-4.77
406.171	2.23
406.299	10.23
406.426	19.23
406.554	11.23
406.681	23.23
406.809	3.23
406.937	10.23
407.064	-8.77
407.192	16.23
407.319	2.23
407.447	10.23
407.574	35.23
407.702	-1.77
407.83	4.23
407.957	-10.77
408.085	13.23
408.212	6.23
408.34	16.23
408.467	16.23
408.595	9.23
408.722	16.23
408.85	13.23
408.977	17.23
409.105	14.23
409.232	19.23
409.36	21.23
409.487	14.23
409.615	35.23
409.742	23.23
409.87	45.23
409.997	40.23
410.125	35.23
410.252	70.23
410.379	64.23
410.507	27.23
410.634	1.23
410.762	-0.77
410.889	12.23
411.017	11.23
411.144	24.23
411.271	-6.77
411.399	7.23
411.526	9.23
411.653	24.23
411.781	21.23
411.908	26.23
412.036	16.23
412.163	22.23
412.29	19.23
412.418	8.23
412.545	19.23
412.672	-14.77
412.8	21.23
412.927	-3.77
413.054	12.23
413.182	6.23
413.309	2.23
413.436	2.23
413.564	2.23
413.691	-0.77
413.818	17.23
413.945	-14.77
414.073	4.23
414.2	8.23
414.327	13.23
414.454	23.23
414.582	32.23
414.709	-2.77
414.836	2.23
414.963	10.23
415.091	-1.77
415.218	0.23
415.345	3.23
415.472	9.23
415.6	-6.77
415.727	23.23
415.854	7.23
415.981	0.23
416.108	0.23
416.236	15.23
416.363	6.23
416.49	-5.77
416.617	21.23
416.744	27.23
416.871	3.23
416.998	-20.77
417.126	0.23
417.253	-6.77
417.38	1.23
417.507	-3.77
417.634	10.23
417.761	16.23
417.888	23.23
418.015	11.23
418.143	41.23
418.27	36.23
418.397	9.23
418.524	4.23
418.651	2.23
418.778	17.23
418.905	42.23
419.032	22.23
419.159	23.23
419.286	8.23
419.413	4.23
419.54	13.23
419.667	-4.77
419.794	-6.77
419.921	12.23
420.048	4.23
420.175	22.23
420.302	2.23
