Data from LowRes_H2_15_26_11_07_2024_HR4C61881__66__15-28-20-236.txt Node

Date: Thu Nov 07 15:28:20 EST 2024
User: crc00042
Spectrometer: HR4C6188
Trigger mode: 4
Integration Time (sec): 1.000000E-1
Scans to average: 1
Electric dark correction enabled: true
Nonlinearity correction enabled: false
Boxcar width: 0
XAxis mode: Wavelengths
Number of Pixels in Spectrum: 3648
>>>>>Begin Spectral Data<<<<<
245.66	-77.15
245.797	-77.15
245.934	-77.15
246.071	-71.15
246.208	13.85
246.344	-3.15
246.481	3.85
246.618	-8.15
246.755	15.85
246.892	-11.15
247.029	-3.15
247.165	-21.15
247.302	5.85
247.439	3.85
247.576	2.85
247.713	-6.15
247.849	33.85
247.986	-13.15
248.123	6.85
248.26	-15.15
248.396	22.85
248.533	1.85
248.67	-3.15
248.806	5.85
248.943	15.85
249.08	4.85
249.216	5.85
249.353	-14.15
249.49	-5.15
249.626	17.85
249.763	-14.15
249.9	-9.15
250.036	-7.15
250.173	17.85
250.309	16.85
250.446	16.85
250.582	10.85
250.719	-1.15
250.856	-16.15
250.992	13.85
251.129	4.85
251.265	-2.15
251.402	7.85
251.538	1.85
251.675	13.85
251.811	20.85
251.948	1.85
252.084	5.85
252.221	5.85
252.357	-0.15
252.493	15.85
252.63	-0.15
252.766	21.85
252.903	5.85
253.039	8.85
253.175	18.85
253.312	1.85
253.448	-4.15
253.585	-23.15
253.721	8.85
253.857	-3.15
253.994	14.85
254.13	6.85
254.266	4.85
254.403	5.85
254.539	15.85
254.675	23.85
254.811	14.85
254.948	6.85
255.084	5.85
255.22	-6.15
255.356	-0.15
255.493	12.85
255.629	-10.15
255.765	10.85
255.901	9.85
256.037	12.85
256.174	10.85
256.31	1.85
256.446	-3.15
256.582	-2.15
256.718	22.85
256.854	16.85
256.991	25.85
257.127	14.85
257.263	-8.15
257.399	21.85
257.535	-1.15
257.671	-3.15
257.807	6.85
257.943	11.85
258.079	2.85
258.215	-6.15
258.351	31.85
258.487	-1.15
258.623	13.85
258.759	0.85
258.895	0.85
259.031	5.85
259.167	-3.15
259.303	25.85
259.439	13.85
259.575	7.85
259.711	8.85
259.847	-13.15
259.983	12.85
260.119	0.85
260.255	4.85
260.391	22.85
260.527	22.85
260.663	8.85
260.799	18.85
260.934	-12.15
261.07	-6.15
261.206	-18.15
261.342	13.85
261.478	12.85
261.614	21.85
261.749	9.85
261.885	-7.15
262.021	19.85
262.157	30.85
262.293	-9.15
262.428	-0.15
262.564	4.85
262.7	15.85
262.836	7.85
262.971	15.85
263.107	9.85
263.243	24.85
263.378	16.85
263.514	-15.15
263.65	-6.15
263.785	-11.15
263.921	12.85
264.057	-5.15
264.192	13.85
264.328	18.85
264.464	-17.15
264.599	21.85
264.735	43.85
264.871	3.85
265.006	8.85
265.142	15.85
265.277	-12.15
265.413	2.85
265.548	16.85
265.684	8.85
265.819	7.85
265.955	-9.15
266.091	-9.15
266.226	-1.15
266.362	4.85
266.497	4.85
266.633	1.85
266.768	0.85
266.903	6.85
267.039	22.85
267.174	24.85
267.31	11.85
267.445	2.85
267.581	10.85
267.716	18.85
267.851	7.85
267.987	10.85
268.122	23.85
268.258	-4.15
268.393	-6.15
268.528	27.85
268.664	5.85
268.799	-6.15
268.934	-7.15
269.07	-12.15
269.205	12.85
269.34	18.85
269.476	5.85
269.611	6.85
269.746	26.85
269.881	12.85
270.017	15.85
270.152	10.85
270.287	23.85
270.422	21.85
270.558	5.85
270.693	7.85
270.828	8.85
270.963	8.85
271.098	-1.15
271.234	0.85
271.369	11.85
271.504	-9.15
271.639	-2.15
271.774	0.85
271.909	3.85
272.045	-11.15
272.18	0.85
272.315	6.85
272.45	14.85
272.585	-1.15
272.72	17.85
272.855	-0.15
272.99	23.85
273.125	1.85
273.26	-3.15
273.395	17.85
273.53	-19.15
273.665	9.85
273.8	2.85
273.935	14.85
274.07	-8.15
274.205	12.85
274.34	-15.15
274.475	-2.15
274.61	12.85
274.745	-10.15
274.88	23.85
275.015	-9.15
275.15	-2.15
275.285	4.85
275.42	7.85
275.555	10.85
275.69	-2.15
275.825	1.85
275.959	14.85
276.094	-5.15
276.229	-2.15
276.364	-1.15
276.499	12.85
276.634	-5.15
276.768	0.85
276.903	9.85
277.038	25.85
277.173	11.85
277.308	4.85
277.442	-1.15
277.577	-7.15
277.712	0.85
277.847	7.85
277.981	12.85
278.116	-29.15
278.251	9.85
278.386	5.85
278.52	1.85
278.655	-3.15
278.79	16.85
278.924	2.85
279.059	6.85
279.194	-5.15
279.328	37.85
279.463	3.85
279.598	19.85
279.732	7.85
279.867	9.85
280.001	28.85
280.136	6.85
280.271	18.85
280.405	11.85
280.54	19.85
280.674	-9.15
280.809	24.85
280.943	-10.15
281.078	-4.15
281.213	8.85
281.347	13.85
281.482	3.85
281.616	-8.15
281.751	-13.15
281.885	-6.15
282.02	9.85
282.154	4.85
282.288	-25.15
282.423	-3.15
282.557	-20.15
282.692	12.85
282.826	7.85
282.961	10.85
283.095	-15.15
283.229	-6.15
283.364	-15.15
283.498	-1.15
283.633	2.85
283.767	9.85
283.901	2.85
284.036	-23.15
284.17	-21.15
284.304	7.85
284.439	10.85
284.573	-21.15
284.707	25.85
284.842	3.85
284.976	-12.15
285.11	3.85
285.244	0.85
285.379	61.85
285.513	-1.15
285.647	18.85
285.781	-1.15
285.916	15.85
286.05	5.85
286.184	34.85
286.318	11.85
286.453	13.85
286.587	-10.15
286.721	-11.15
286.855	13.85
286.989	13.85
287.123	9.85
287.258	-2.15
287.392	3.85
287.526	19.85
287.66	-0.15
287.794	3.85
287.928	10.85
288.062	10.85
288.196	1.85
288.33	6.85
288.464	25.85
288.598	21.85
288.733	7.85
288.867	8.85
289.001	-3.15
289.135	-1.15
289.269	-13.15
289.403	3.85
289.537	6.85
289.671	2.85
289.805	-24.15
289.939	4.85
290.073	9.85
290.207	14.85
290.34	-1.15
290.474	19.85
290.608	18.85
290.742	8.85
290.876	7.85
291.01	22.85
291.144	33.85
291.278	29.85
291.412	1.85
291.546	-9.15
291.679	6.85
291.813	-4.15
291.947	3.85
292.081	2.85
292.215	-2.15
292.349	10.85
292.482	11.85
292.616	-11.15
292.75	0.85
292.884	14.85
293.018	14.85
293.151	-23.15
293.285	12.85
293.419	8.85
293.553	-9.15
293.686	-17.15
293.82	7.85
293.954	16.85
294.088	18.85
294.221	-2.15
294.355	-8.15
294.489	-0.15
294.622	4.85
294.756	17.85
294.89	-10.15
295.023	-7.15
295.157	8.85
295.291	17.85
295.424	43.85
295.558	-0.15
295.691	-14.15
295.825	10.85
295.959	-11.15
296.092	-6.15
296.226	2.85
296.359	6.85
296.493	18.85
296.627	8.85
296.76	16.85
296.894	10.85
297.027	-2.15
297.161	0.85
297.294	-2.15
297.428	8.85
297.561	22.85
297.695	-2.15
297.828	12.85
297.962	0.85
298.095	2.85
298.229	5.85
298.362	1.85
298.495	-1.15
298.629	-7.15
298.762	16.85
298.896	8.85
299.029	-5.15
299.162	19.85
299.296	24.85
299.429	-0.15
299.563	-15.15
299.696	2.85
299.829	9.85
299.963	14.85
300.096	14.85
300.229	6.85
300.363	-6.15
300.496	2.85
300.629	-7.15
300.763	-4.15
300.896	0.85
301.029	7.85
301.162	5.85
301.296	4.85
301.429	7.85
301.562	-24.15
301.695	4.85
301.829	10.85
301.962	23.85
302.095	16.85
302.228	0.85
302.362	3.85
302.495	-3.15
302.628	10.85
302.761	1.85
302.894	14.85
303.027	20.85
303.161	-11.15
303.294	-2.15
303.427	15.85
303.56	6.85
303.693	-2.15
303.826	7.85
303.959	3.85
304.092	-10.15
304.225	-9.15
304.359	-9.15
304.492	4.85
304.625	1.85
304.758	22.85
304.891	22.85
305.024	6.85
305.157	0.85
305.29	3.85
305.423	8.85
305.556	7.85
305.689	13.85
305.822	11.85
305.955	6.85
306.088	7.85
306.221	-5.15
306.354	-2.15
306.487	-4.15
306.62	1.85
306.752	6.85
306.885	6.85
307.018	4.85
307.151	23.85
307.284	23.85
307.417	16.85
307.55	15.85
307.683	-7.15
307.816	13.85
307.948	11.85
308.081	8.85
308.214	13.85
308.347	17.85
308.48	-1.15
308.613	-14.15
308.745	20.85
308.878	3.85
309.011	17.85
309.144	21.85
309.277	9.85
309.409	12.85
309.542	5.85
309.675	13.85
309.808	2.85
309.94	23.85
310.073	-14.15
310.206	-5.15
310.339	15.85
310.471	-8.15
310.604	19.85
310.737	1.85
310.869	12.85
311.002	2.85
311.135	-9.15
311.267	-0.15
311.4	-2.15
311.533	36.85
311.665	7.85
311.798	3.85
311.93	14.85
312.063	6.85
312.196	8.85
312.328	-23.15
312.461	-6.15
312.593	1.85
312.726	14.85
312.859	9.85
312.991	21.85
313.124	-8.15
313.256	-0.15
313.389	20.85
313.521	3.85
313.654	13.85
313.786	-16.15
313.919	-0.15
314.051	-0.15
314.184	23.85
314.316	10.85
314.449	-15.15
314.581	0.85
314.714	7.85
314.846	21.85
314.978	3.85
315.111	13.85
315.243	18.85
315.376	11.85
315.508	3.85
315.641	10.85
315.773	28.85
315.905	17.85
316.038	3.85
316.17	-4.15
316.302	14.85
316.435	8.85
316.567	-0.15
316.699	28.85
316.832	4.85
316.964	1.85
317.096	12.85
317.229	-7.15
317.361	-9.15
317.493	6.85
317.625	-6.15
317.758	0.85
317.89	15.85
318.022	-1.15
318.155	6.85
318.287	17.85
318.419	-3.15
318.551	2.85
318.683	1.85
318.816	-10.15
318.948	-13.15
319.08	-0.15
319.212	-0.15
319.344	2.85
319.477	-1.15
319.609	5.85
319.741	32.85
319.873	6.85
320.005	3.85
320.137	12.85
320.269	18.85
320.401	2.85
320.534	-4.15
320.666	-19.15
320.798	-2.15
320.93	6.85
321.062	0.85
321.194	-4.15
321.326	21.85
321.458	18.85
321.59	11.85
321.722	4.85
321.854	2.85
321.986	6.85
322.118	10.85
322.25	-3.15
322.382	-1.15
322.514	-4.15
322.646	-8.15
322.778	15.85
322.91	3.85
323.042	9.85
323.174	2.85
323.306	-4.15
323.438	0.85
323.57	7.85
323.702	15.85
323.834	10.85
323.966	-4.15
324.097	8.85
324.229	-0.15
324.361	10.85
324.493	-7.15
324.625	7.85
324.757	19.85
324.889	9.85
325.021	22.85
325.152	12.85
325.284	10.85
325.416	0.85
325.548	20.85
325.68	-13.15
325.811	12.85
325.943	8.85
326.075	5.85
326.207	4.85
326.339	15.85
326.47	2.85
326.602	28.85
326.734	15.85
326.866	25.85
326.997	-0.15
327.129	-10.15
327.261	-9.15
327.392	-19.15
327.524	4.85
327.656	-13.15
327.787	8.85
327.919	13.85
328.051	0.85
328.182	26.85
328.314	15.85
328.446	1.85
328.577	24.85
328.709	1.85
328.841	-13.15
328.972	-0.15
329.104	5.85
329.235	-0.15
329.367	7.85
329.499	-2.15
329.63	19.85
329.762	7.85
329.893	-2.15
330.025	3.85
330.156	-4.15
330.288	3.85
330.419	9.85
330.551	14.85
330.683	20.85
330.814	-18.15
330.946	12.85
331.077	-5.15
331.208	-9.15
331.34	2.85
331.471	2.85
331.603	-4.15
331.734	-5.15
331.866	8.85
331.997	17.85
332.129	-1.15
332.26	-10.15
332.392	25.85
332.523	4.85
332.654	-11.15
332.786	-7.15
332.917	5.85
333.048	25.85
333.18	35.85
333.311	3.85
333.443	14.85
333.574	10.85
333.705	23.85
333.837	11.85
333.968	6.85
334.099	32.85
334.231	24.85
334.362	4.85
334.493	3.85
334.624	2.85
334.756	21.85
334.887	9.85
335.018	4.85
335.15	-1.15
335.281	4.85
335.412	5.85
335.543	-5.15
335.675	-2.15
335.806	12.85
335.937	17.85
336.068	26.85
336.199	37.85
336.331	3.85
336.462	11.85
336.593	22.85
336.724	11.85
336.855	-4.15
336.986	10.85
337.118	12.85
337.249	3.85
337.38	16.85
337.511	16.85
337.642	14.85
337.773	5.85
337.904	10.85
338.035	3.85
338.166	3.85
338.298	4.85
338.429	-0.15
338.56	12.85
338.691	17.85
338.822	8.85
338.953	25.85
339.084	14.85
339.215	25.85
339.346	0.85
339.477	7.85
339.608	-7.15
339.739	2.85
339.87	18.85
340.001	-0.15
340.132	15.85
340.263	-0.15
340.394	11.85
340.525	16.85
340.656	7.85
340.787	-5.15
340.918	28.85
341.049	1.85
341.179	-1.15
341.31	12.85
341.441	27.85
341.572	22.85
341.703	2.85
341.834	1.85
341.965	22.85
342.096	14.85
342.227	-7.15
342.357	-5.15
342.488	12.85
342.619	9.85
342.75	10.85
342.881	2.85
343.012	15.85
343.142	25.85
343.273	-18.15
343.404	7.85
343.535	39.85
343.666	25.85
343.796	10.85
343.927	43.85
344.058	34.85
344.189	23.85
344.319	16.85
344.45	27.85
344.581	5.85
344.712	-18.15
344.842	-2.15
344.973	-10.15
345.104	20.85
345.234	24.85
345.365	-16.15
345.496	14.85
345.626	-1.15
345.757	22.85
345.888	-8.15
346.018	7.85
346.149	4.85
346.28	31.85
346.41	-11.15
346.541	7.85
346.672	-11.15
346.802	22.85
346.933	16.85
347.063	5.85
347.194	14.85
347.325	26.85
347.455	26.85
347.586	9.85
347.716	-11.15
347.847	24.85
347.977	13.85
348.108	15.85
348.238	28.85
348.369	14.85
348.499	12.85
348.63	2.85
348.76	12.85
348.891	10.85
349.021	1.85
349.152	10.85
349.282	-1.15
349.413	-1.15
349.543	22.85
349.674	-5.15
349.804	1.85
349.935	1.85
350.065	1.85
350.196	-12.15
350.326	-2.15
350.456	-0.15
350.587	19.85
350.717	8.85
350.848	18.85
350.978	10.85
351.108	-6.15
351.239	13.85
351.369	-7.15
351.499	5.85
351.63	8.85
351.76	2.85
351.89	3.85
352.021	16.85
352.151	-0.15
352.281	20.85
352.412	27.85
352.542	4.85
352.672	20.85
352.803	8.85
352.933	19.85
353.063	23.85
353.193	5.85
353.324	-8.15
353.454	18.85
353.584	24.85
353.714	2.85
353.845	6.85
353.975	-6.15
354.105	-2.15
354.235	0.85
354.365	7.85
354.496	1.85
354.626	-5.15
354.756	11.85
354.886	6.85
355.016	8.85
355.146	10.85
355.277	1.85
355.407	6.85
355.537	20.85
355.667	11.85
355.797	-2.15
355.927	-15.15
356.057	-5.15
356.187	-13.15
356.318	-3.15
356.448	9.85
356.578	-1.15
356.708	13.85
356.838	10.85
356.968	1.85
357.098	7.85
357.228	15.85
357.358	10.85
357.488	-2.15
357.618	35.85
357.748	18.85
357.878	-1.15
358.008	14.85
358.138	-6.15
358.268	-7.15
358.398	15.85
358.528	-2.15
358.658	12.85
358.788	9.85
358.918	11.85
359.048	20.85
359.178	16.85
359.308	-1.15
359.438	33.85
359.568	25.85
359.698	21.85
359.827	-1.15
359.957	2.85
360.087	-0.15
360.217	-0.15
360.347	12.85
360.477	12.85
360.607	-11.15
360.737	14.85
360.866	2.85
360.996	-19.15
361.126	-17.15
361.256	20.85
361.386	30.85
361.516	27.85
361.645	-9.15
361.775	18.85
361.905	-24.15
362.035	3.85
362.165	-0.15
362.294	13.85
362.424	13.85
362.554	5.85
362.684	11.85
362.813	13.85
362.943	21.85
363.073	-2.15
363.203	8.85
363.332	20.85
363.462	-11.15
363.592	-4.15
363.721	-1.15
363.851	12.85
363.981	23.85
364.111	10.85
364.24	-15.15
364.37	10.85
364.5	19.85
364.629	18.85
364.759	-0.15
364.888	-12.15
365.018	9.85
365.148	9.85
365.277	16.85
365.407	14.85
365.537	9.85
365.666	2.85
365.796	-7.15
365.925	9.85
366.055	29.85
366.184	12.85
366.314	9.85
366.444	9.85
366.573	-1.15
366.703	-1.15
366.832	19.85
366.962	8.85
367.091	23.85
367.221	26.85
367.35	19.85
367.48	55.85
367.609	13.85
367.739	4.85
367.868	-4.15
367.998	1.85
368.127	19.85
368.257	2.85
368.386	26.85
368.516	28.85
368.645	-3.15
368.775	12.85
368.904	4.85
369.033	1.85
369.163	9.85
369.292	26.85
369.422	7.85
369.551	37.85
369.68	20.85
369.81	22.85
369.939	15.85
370.069	31.85
370.198	14.85
370.327	-14.15
370.457	16.85
370.586	12.85
370.715	8.85
370.845	-13.15
370.974	14.85
371.103	33.85
371.233	3.85
371.362	13.85
371.491	6.85
371.621	13.85
371.75	10.85
371.879	-7.15
372.008	-13.15
372.138	-8.15
372.267	-0.15
372.396	9.85
372.525	7.85
372.655	9.85
372.784	6.85
372.913	13.85
373.042	19.85
373.172	4.85
373.301	-11.15
373.43	-6.15
373.559	10.85
373.688	23.85
373.818	21.85
373.947	25.85
374.076	4.85
374.205	28.85
374.334	6.85
374.463	-12.15
374.593	28.85
374.722	19.85
374.851	29.85
374.98	12.85
375.109	6.85
375.238	0.85
375.367	29.85
375.496	-6.15
375.625	2.85
375.755	17.85
375.884	28.85
376.013	34.85
376.142	5.85
376.271	3.85
376.4	3.85
376.529	22.85
376.658	8.85
376.787	7.85
376.916	1.85
377.045	6.85
377.174	13.85
377.303	7.85
377.432	15.85
377.561	20.85
377.69	2.85
377.819	24.85
377.948	7.85
378.077	3.85
378.206	-15.15
378.335	-9.15
378.464	23.85
378.593	24.85
378.722	3.85
378.851	-10.15
378.98	27.85
379.108	-7.15
379.237	-6.15
379.366	15.85
379.495	23.85
379.624	24.85
379.753	-4.15
379.882	-8.15
380.011	-2.15
380.14	3.85
380.268	1.85
380.397	17.85
380.526	13.85
380.655	2.85
380.784	4.85
380.913	-17.15
381.041	5.85
381.17	-9.15
381.299	-2.15
381.428	13.85
381.557	7.85
381.685	-0.15
381.814	32.85
381.943	10.85
382.072	4.85
382.2	3.85
382.329	16.85
382.458	9.85
382.587	31.85
382.715	39.85
382.844	10.85
382.973	15.85
383.102	13.85
383.23	6.85
383.359	-12.15
383.488	2.85
383.616	11.85
383.745	0.85
383.874	9.85
384.003	26.85
384.131	5.85
384.26	-5.15
384.389	25.85
384.517	-17.15
384.646	-12.15
384.774	14.85
384.903	22.85
385.032	12.85
385.16	12.85
385.289	0.85
385.418	5.85
385.546	-3.15
385.675	26.85
385.803	10.85
385.932	9.85
386.06	-3.15
386.189	13.85
386.318	13.85
386.446	5.85
386.575	1.85
386.703	26.85
386.832	1.85
386.96	-6.15
387.089	8.85
387.217	13.85
387.346	-6.15
387.474	10.85
387.603	7.85
387.731	11.85
387.86	6.85
387.988	7.85
388.117	22.85
388.245	11.85
388.374	1.85
388.502	21.85
388.631	7.85
388.759	0.85
388.888	3.85
389.016	11.85
389.144	6.85
389.273	10.85
389.401	4.85
389.53	5.85
389.658	20.85
389.786	4.85
389.915	-16.15
390.043	-11.15
390.172	-13.15
390.3	25.85
390.428	23.85
390.557	3.85
390.685	31.85
390.813	32.85
390.942	6.85
391.07	10.85
391.198	28.85
391.327	13.85
391.455	-2.15
391.583	25.85
391.712	28.85
391.84	0.85
391.968	13.85
392.096	1.85
392.225	-0.15
392.353	18.85
392.481	-0.15
392.609	-2.15
392.738	8.85
392.866	19.85
392.994	-13.15
393.122	14.85
393.251	6.85
393.379	6.85
393.507	0.85
393.635	-9.15
393.764	16.85
393.892	20.85
394.02	-1.15
394.148	-16.15
394.276	-1.15
394.404	34.85
394.533	11.85
394.661	16.85
394.789	12.85
394.917	38.85
395.045	6.85
395.173	-1.15
395.302	4.85
395.43	7.85
395.558	21.85
395.686	22.85
395.814	7.85
395.942	24.85
396.07	5.85
396.198	6.85
396.326	12.85
396.454	20.85
396.582	7.85
396.711	27.85
396.839	16.85
396.967	30.85
397.095	8.85
397.223	26.85
397.351	12.85
397.479	5.85
397.607	8.85
397.735	19.85
397.863	28.85
397.991	9.85
398.119	2.85
398.247	0.85
398.375	2.85
398.503	12.85
398.631	4.85
398.759	-8.15
398.887	4.85
399.015	9.85
399.143	4.85
399.271	5.85
399.399	18.85
399.526	20.85
399.654	16.85
399.782	4.85
399.91	24.85
400.038	37.85
400.166	-0.15
400.294	-6.15
400.422	7.85
400.55	19.85
400.678	9.85
400.805	2.85
400.933	15.85
401.061	20.85
401.189	-0.15
401.317	11.85
401.445	18.85
401.573	19.85
401.7	3.85
401.828	-2.15
401.956	-9.15
402.084	24.85
402.212	38.85
402.34	9.85
402.467	4.85
402.595	8.85
402.723	0.85
402.851	15.85
402.978	1.85
403.106	24.85
403.234	11.85
403.362	44.85
403.489	28.85
403.617	31.85
403.745	18.85
403.873	1.85
404	15.85
404.128	22.85
404.256	16.85
404.384	23.85
404.511	18.85
404.639	9.85
404.767	9.85
404.894	17.85
405.022	5.85
405.15	15.85
405.277	2.85
405.405	-0.15
405.533	8.85
405.66	7.85
405.788	-20.15
405.916	-15.15
406.043	-3.15
406.171	-3.15
406.299	22.85
406.426	17.85
406.554	8.85
406.681	25.85
406.809	30.85
406.937	11.85
407.064	11.85
407.192	14.85
407.319	-3.15
407.447	-0.15
407.574	25.85
407.702	8.85
407.83	-9.15
407.957	-9.15
408.085	2.85
408.212	8.85
408.34	17.85
408.467	8.85
408.595	15.85
408.722	30.85
408.85	25.85
408.977	16.85
409.105	5.85
409.232	10.85
409.36	4.85
409.487	14.85
409.615	17.85
409.742	38.85
409.87	40.85
409.997	43.85
410.125	50.85
410.252	70.85
410.379	50.85
410.507	22.85
410.634	29.85
410.762	25.85
410.889	11.85
411.017	8.85
411.144	17.85
411.271	20.85
411.399	30.85
411.526	20.85
411.653	20.85
411.781	42.85
411.908	12.85
412.036	23.85
412.163	29.85
412.29	22.85
412.418	19.85
412.545	19.85
412.672	0.85
412.8	33.85
412.927	32.85
413.054	29.85
413.182	19.85
413.309	1.85
413.436	-4.15
413.564	20.85
413.691	14.85
413.818	26.85
413.945	-1.15
414.073	31.85
414.2	22.85
414.327	24.85
414.454	23.85
414.582	6.85
414.709	11.85
414.836	2.85
414.963	4.85
415.091	15.85
415.218	15.85
415.345	14.85
415.472	-8.15
415.6	2.85
415.727	13.85
415.854	16.85
415.981	10.85
416.108	15.85
416.236	14.85
416.363	20.85
416.49	17.85
416.617	22.85
416.744	23.85
416.871	18.85
416.998	11.85
417.126	12.85
417.253	3.85
417.38	4.85
417.507	14.85
417.634	4.85
417.761	19.85
417.888	27.85
418.015	10.85
418.143	6.85
418.27	32.85
418.397	23.85
418.524	15.85
418.651	-0.15
418.778	26.85
418.905	35.85
419.032	10.85
419.159	20.85
419.286	27.85
419.413	14.85
419.54	21.85
419.667	6.85
419.794	10.85
419.921	24.85
420.048	3.85
420.175	2.85
420.302	-1.15
420.429	10.85
420.556	9.85
420.683	-1.15
420.81	9.85
420.937	15.85
421.064	8.85
421.191	3.85
421.318	25.85
