Data from LowRes_H2_15_26_11_07_2024_HR4C61881__100__15-28-23-636.txt Node

Date: Thu Nov 07 15:28:23 EST 2024
User: crc00042
Spectrometer: HR4C6188
Trigger mode: 4
Integration Time (sec): 1.000000E-1
Scans to average: 1
Electric dark correction enabled: true
Nonlinearity correction enabled: false
Boxcar width: 0
XAxis mode: Wavelengths
Number of Pixels in Spectrum: 3648
>>>>>Begin Spectral Data<<<<<
245.66	-75.08
245.797	-75.08
245.934	-75.08
246.071	-73.08
246.208	30.92
246.344	14.92
246.481	7.92
246.618	-22.08
246.755	14.92
246.892	-8.08
247.029	-12.08
247.165	-18.08
247.302	15.92
247.439	5.92
247.576	13.92
247.713	-24.08
247.849	24.92
247.986	-14.08
248.123	14.92
248.26	0.92
248.396	13.92
248.533	-13.08
248.67	0.92
248.806	16.92
248.943	-3.08
249.08	3.92
249.216	22.92
249.353	-0.08
249.49	-1.08
249.626	17.92
249.763	16.92
249.9	-11.08
250.036	1.92
250.173	14.92
250.309	-1.08
250.446	9.92
250.582	-1.08
250.719	6.92
250.856	3.92
250.992	9.92
251.129	0.92
251.265	-4.08
251.402	20.92
251.538	12.92
251.675	10.92
251.811	26.92
251.948	22.92
252.084	12.92
252.221	22.92
252.357	14.92
252.493	19.92
252.63	19.92
252.766	13.92
252.903	12.92
253.039	2.92
253.175	-11.08
253.312	19.92
253.448	-3.08
253.585	-20.08
253.721	6.92
253.857	9.92
253.994	30.92
254.13	4.92
254.266	14.92
254.403	5.92
254.539	3.92
254.675	22.92
254.811	15.92
254.948	17.92
255.084	11.92
255.22	-12.08
255.356	-1.08
255.493	21.92
255.629	2.92
255.765	27.92
255.901	30.92
256.037	5.92
256.174	23.92
256.31	4.92
256.446	-0.08
256.582	9.92
256.718	23.92
256.854	16.92
256.991	14.92
257.127	22.92
257.263	5.92
257.399	23.92
257.535	13.92
257.671	1.92
257.807	-0.08
257.943	0.92
258.079	-20.08
258.215	-8.08
258.351	28.92
258.487	12.92
258.623	37.92
258.759	14.92
258.895	-6.08
259.031	7.92
259.167	10.92
259.303	31.92
259.439	3.92
259.575	14.92
259.711	10.92
259.847	23.92
259.983	24.92
260.119	3.92
260.255	4.92
260.391	24.92
260.527	18.92
260.663	21.92
260.799	21.92
260.934	7.92
261.07	-5.08
261.206	-5.08
261.342	-13.08
261.478	9.92
261.614	17.92
261.749	5.92
261.885	-8.08
262.021	15.92
262.157	19.92
262.293	9.92
262.428	11.92
262.564	20.92
262.7	10.92
262.836	13.92
262.971	30.92
263.107	25.92
263.243	29.92
263.378	12.92
263.514	-7.08
263.65	14.92
263.785	-6.08
263.921	9.92
264.057	-1.08
264.192	24.92
264.328	18.92
264.464	0.92
264.599	9.92
264.735	27.92
264.871	-8.08
265.006	25.92
265.142	2.92
265.277	14.92
265.413	28.92
265.548	37.92
265.684	18.92
265.819	-3.08
265.955	-16.08
266.091	3.92
266.226	-1.08
266.362	12.92
266.497	6.92
266.633	-3.08
266.768	-8.08
266.903	29.92
267.039	18.92
267.174	19.92
267.31	-0.08
267.445	6.92
267.581	17.92
267.716	23.92
267.851	2.92
267.987	11.92
268.122	30.92
268.258	-9.08
268.393	6.92
268.528	19.92
268.664	0.92
268.799	1.92
268.934	5.92
269.07	1.92
269.205	5.92
269.34	22.92
269.476	3.92
269.611	-7.08
269.746	28.92
269.881	11.92
270.017	21.92
270.152	15.92
270.287	19.92
270.422	11.92
270.558	-12.08
270.693	12.92
270.828	-15.08
270.963	-1.08
271.098	1.92
271.234	-7.08
271.369	27.92
271.504	8.92
271.639	-7.08
271.774	10.92
271.909	-1.08
272.045	-17.08
272.18	4.92
272.315	4.92
272.45	20.92
272.585	-6.08
272.72	9.92
272.855	28.92
272.99	13.92
273.125	5.92
273.26	-5.08
273.395	11.92
273.53	-6.08
273.665	20.92
273.8	10.92
273.935	37.92
274.07	17.92
274.205	20.92
274.34	14.92
274.475	12.92
274.61	24.92
274.745	-0.08
274.88	34.92
275.015	-1.08
275.15	5.92
275.285	13.92
275.42	7.92
275.555	30.92
275.69	3.92
275.825	8.92
275.959	14.92
276.094	13.92
276.229	7.92
276.364	-16.08
276.499	5.92
276.634	9.92
276.768	7.92
276.903	7.92
277.038	16.92
277.173	15.92
277.308	-15.08
277.442	-3.08
277.577	-9.08
277.712	2.92
277.847	15.92
277.981	12.92
278.116	-16.08
278.251	-2.08
278.386	16.92
278.52	10.92
278.655	-9.08
278.79	4.92
278.924	17.92
279.059	18.92
279.194	3.92
279.328	51.92
279.463	14.92
279.598	24.92
279.732	7.92
279.867	0.92
280.001	1.92
280.136	-9.08
280.271	2.92
280.405	23.92
280.54	4.92
280.674	13.92
280.809	17.92
280.943	26.92
281.078	18.92
281.213	32.92
281.347	22.92
281.482	4.92
281.616	1.92
281.751	-3.08
281.885	-19.08
282.02	2.92
282.154	10.92
282.288	-26.08
282.423	-7.08
282.557	-16.08
282.692	10.92
282.826	8.92
282.961	15.92
283.095	9.92
283.229	-3.08
283.364	-6.08
283.498	0.92
283.633	-1.08
283.767	-0.08
283.901	11.92
284.036	0.92
284.17	8.92
284.304	6.92
284.439	14.92
284.573	17.92
284.707	23.92
284.842	-2.08
284.976	-23.08
285.11	-22.08
285.244	13.92
285.379	47.92
285.513	9.92
285.647	8.92
285.781	6.92
285.916	10.92
286.05	14.92
286.184	29.92
286.318	24.92
286.453	-14.08
286.587	-21.08
286.721	13.92
286.855	10.92
286.989	9.92
287.123	20.92
287.258	5.92
287.392	18.92
287.526	14.92
287.66	7.92
287.794	-2.08
287.928	17.92
288.062	18.92
288.196	8.92
288.33	10.92
288.464	10.92
288.598	18.92
288.733	18.92
288.867	8.92
289.001	12.92
289.135	21.92
289.269	0.92
289.403	22.92
289.537	-1.08
289.671	11.92
289.805	-5.08
289.939	36.92
290.073	2.92
290.207	15.92
290.34	-2.08
290.474	22.92
290.608	8.92
290.742	-1.08
290.876	-3.08
291.01	10.92
291.144	25.92
291.278	40.92
291.412	24.92
291.546	-2.08
291.679	-7.08
291.813	-9.08
291.947	21.92
292.081	10.92
292.215	-5.08
292.349	26.92
292.482	13.92
292.616	-0.08
292.75	15.92
292.884	8.92
293.018	5.92
293.151	3.92
293.285	17.92
293.419	-4.08
293.553	0.92
293.686	-0.08
293.82	3.92
293.954	34.92
294.088	30.92
294.221	1.92
294.355	-19.08
294.489	14.92
294.622	0.92
294.756	8.92
294.89	4.92
295.023	1.92
295.157	16.92
295.291	11.92
295.424	25.92
295.558	14.92
295.691	18.92
295.825	-0.08
295.959	6.92
296.092	-9.08
296.226	6.92
296.359	2.92
296.493	11.92
296.627	1.92
296.76	-4.08
296.894	8.92
297.027	21.92
297.161	-6.08
297.294	4.92
297.428	12.92
297.561	35.92
297.695	8.92
297.828	0.92
297.962	-8.08
298.095	-5.08
298.229	23.92
298.362	-25.08
298.495	6.92
298.629	3.92
298.762	11.92
298.896	10.92
299.029	-11.08
299.162	-17.08
299.296	12.92
299.429	-2.08
299.563	8.92
299.696	8.92
299.829	11.92
299.963	32.92
300.096	37.92
300.229	16.92
300.363	1.92
300.496	1.92
300.629	-14.08
300.763	14.92
300.896	-7.08
301.029	11.92
301.162	-16.08
301.296	-9.08
301.429	13.92
301.562	-14.08
301.695	4.92
301.829	5.92
301.962	8.92
302.095	21.92
302.228	-7.08
302.362	-16.08
302.495	-7.08
302.628	13.92
302.761	-6.08
302.894	1.92
303.027	34.92
303.161	-7.08
303.294	0.92
303.427	23.92
303.56	8.92
303.693	-0.08
303.826	2.92
303.959	2.92
304.092	-17.08
304.225	-10.08
304.359	7.92
304.492	14.92
304.625	14.92
304.758	25.92
304.891	6.92
305.024	8.92
305.157	1.92
305.29	-0.08
305.423	3.92
305.556	15.92
305.689	15.92
305.822	-3.08
305.955	-6.08
306.088	6.92
306.221	8.92
306.354	2.92
306.487	13.92
306.62	6.92
306.752	-6.08
306.885	6.92
307.018	5.92
307.151	23.92
307.284	17.92
307.417	8.92
307.55	15.92
307.683	-4.08
307.816	20.92
307.948	1.92
308.081	2.92
308.214	0.92
308.347	25.92
308.48	2.92
308.613	-13.08
308.745	11.92
308.878	-22.08
309.011	4.92
309.144	12.92
309.277	-1.08
309.409	10.92
309.542	4.92
309.675	15.92
309.808	-9.08
309.94	15.92
310.073	-16.08
310.206	-9.08
310.339	26.92
310.471	-9.08
310.604	27.92
310.737	-5.08
310.869	5.92
311.002	8.92
311.135	3.92
311.267	-6.08
311.4	4.92
311.533	32.92
311.665	1.92
311.798	5.92
311.93	9.92
312.063	8.92
312.196	8.92
312.328	9.92
312.461	-5.08
312.593	9.92
312.726	22.92
312.859	9.92
312.991	14.92
313.124	-24.08
313.256	14.92
313.389	7.92
313.521	-2.08
313.654	-7.08
313.786	-16.08
313.919	0.92
314.051	25.92
314.184	26.92
314.316	-13.08
314.449	-34.08
314.581	-3.08
314.714	0.92
314.846	22.92
314.978	-8.08
315.111	-11.08
315.243	13.92
315.376	-3.08
315.508	17.92
315.641	12.92
315.773	13.92
315.905	9.92
316.038	-5.08
316.17	12.92
316.302	15.92
316.435	6.92
316.567	-1.08
316.699	33.92
316.832	5.92
316.964	7.92
317.096	-10.08
317.229	1.92
317.361	-26.08
317.493	-4.08
317.625	8.92
317.758	12.92
317.89	10.92
318.022	-2.08
318.155	14.92
318.287	12.92
318.419	14.92
318.551	14.92
318.683	18.92
318.816	0.92
318.948	0.92
319.08	-4.08
319.212	17.92
319.344	3.92
319.477	11.92
319.609	7.92
319.741	26.92
319.873	7.92
320.005	23.92
320.137	8.92
320.269	4.92
320.401	-2.08
320.534	11.92
320.666	-14.08
320.798	-11.08
320.93	-2.08
321.062	-3.08
321.194	-5.08
321.326	10.92
321.458	7.92
321.59	14.92
321.722	-0.08
321.854	18.92
321.986	-7.08
322.118	20.92
322.25	-0.08
322.382	11.92
322.514	10.92
322.646	5.92
322.778	25.92
322.91	18.92
323.042	7.92
323.174	13.92
323.306	-3.08
323.438	-24.08
323.57	-1.08
323.702	5.92
323.834	0.92
323.966	-5.08
324.097	16.92
324.229	17.92
324.361	12.92
324.493	16.92
324.625	13.92
324.757	17.92
324.889	-8.08
325.021	4.92
325.152	22.92
325.284	30.92
325.416	16.92
325.548	31.92
325.68	7.92
325.811	24.92
325.943	21.92
326.075	-2.08
326.207	11.92
326.339	14.92
326.47	9.92
326.602	16.92
326.734	11.92
326.866	19.92
326.997	-6.08
327.129	-11.08
327.261	-3.08
327.392	6.92
327.524	16.92
327.656	15.92
327.787	21.92
327.919	6.92
328.051	1.92
328.182	18.92
328.314	16.92
328.446	10.92
328.577	20.92
328.709	16.92
328.841	-20.08
328.972	-4.08
329.104	8.92
329.235	25.92
329.367	2.92
329.499	7.92
329.63	8.92
329.762	5.92
329.893	34.92
330.025	11.92
330.156	-16.08
330.288	2.92
330.419	10.92
330.551	14.92
330.683	8.92
330.814	-0.08
330.946	25.92
331.077	-2.08
331.208	-11.08
331.34	2.92
331.471	-1.08
331.603	16.92
331.734	4.92
331.866	15.92
331.997	13.92
332.129	-3.08
332.26	0.92
332.392	27.92
332.523	5.92
332.654	-3.08
332.786	-8.08
332.917	1.92
333.048	7.92
333.18	21.92
333.311	4.92
333.443	-5.08
333.574	15.92
333.705	21.92
333.837	-2.08
333.968	8.92
334.099	18.92
334.231	18.92
334.362	5.92
334.493	13.92
334.624	18.92
334.756	17.92
334.887	12.92
335.018	30.92
335.15	13.92
335.281	10.92
335.412	25.92
335.543	10.92
335.675	14.92
335.806	22.92
335.937	-8.08
336.068	24.92
336.199	28.92
336.331	11.92
336.462	5.92
336.593	18.92
336.724	4.92
336.855	10.92
336.986	30.92
337.118	32.92
337.249	3.92
337.38	25.92
337.511	7.92
337.642	9.92
337.773	20.92
337.904	7.92
338.035	21.92
338.166	11.92
338.298	-2.08
338.429	1.92
338.56	16.92
338.691	30.92
338.822	15.92
338.953	11.92
339.084	12.92
339.215	18.92
339.346	7.92
339.477	11.92
339.608	13.92
339.739	9.92
339.87	11.92
340.001	-6.08
340.132	19.92
340.263	9.92
340.394	12.92
340.525	12.92
340.656	3.92
340.787	-2.08
340.918	35.92
341.049	33.92
341.179	-0.08
341.31	9.92
341.441	17.92
341.572	22.92
341.703	17.92
341.834	18.92
341.965	24.92
342.096	1.92
342.227	18.92
342.357	0.92
342.488	16.92
342.619	10.92
342.75	17.92
342.881	-1.08
343.012	28.92
343.142	35.92
343.273	7.92
343.404	13.92
343.535	39.92
343.666	32.92
343.796	16.92
343.927	29.92
344.058	24.92
344.189	24.92
344.319	23.92
344.45	11.92
344.581	-0.08
344.712	0.92
344.842	6.92
344.973	-1.08
345.104	-1.08
345.234	-3.08
345.365	-27.08
345.496	-6.08
345.626	13.92
345.757	17.92
345.888	6.92
346.018	29.92
346.149	20.92
346.28	16.92
346.41	7.92
346.541	-5.08
346.672	5.92
346.802	5.92
346.933	3.92
347.063	-0.08
347.194	11.92
347.325	23.92
347.455	30.92
347.586	12.92
347.716	6.92
347.847	21.92
347.977	18.92
348.108	27.92
348.238	8.92
348.369	15.92
348.499	2.92
348.63	-1.08
348.76	2.92
348.891	7.92
349.021	34.92
349.152	18.92
349.282	14.92
349.413	4.92
349.543	15.92
349.674	3.92
349.804	-2.08
349.935	0.92
350.065	19.92
350.196	-0.08
350.326	-5.08
350.456	-7.08
350.587	42.92
350.717	10.92
350.848	12.92
350.978	10.92
351.108	-2.08
351.239	19.92
351.369	4.92
351.499	4.92
351.63	29.92
351.76	13.92
351.89	2.92
352.021	22.92
352.151	1.92
352.281	6.92
352.412	19.92
352.542	10.92
352.672	5.92
352.803	19.92
352.933	14.92
353.063	13.92
353.193	8.92
353.324	14.92
353.454	13.92
353.584	13.92
353.714	9.92
353.845	4.92
353.975	12.92
354.105	24.92
354.235	9.92
354.365	4.92
354.496	12.92
354.626	7.92
354.756	35.92
354.886	14.92
355.016	-9.08
355.146	10.92
355.277	7.92
355.407	-10.08
355.537	-2.08
355.667	19.92
355.797	3.92
355.927	0.92
356.057	13.92
356.187	3.92
356.318	15.92
356.448	9.92
356.578	2.92
356.708	6.92
356.838	-9.08
356.968	1.92
357.098	5.92
357.228	17.92
357.358	-1.08
357.488	3.92
357.618	16.92
357.748	19.92
357.878	14.92
358.008	13.92
358.138	5.92
358.268	1.92
358.398	17.92
358.528	-8.08
358.658	5.92
358.788	3.92
358.918	1.92
359.048	10.92
359.178	14.92
359.308	19.92
359.438	23.92
359.568	23.92
359.698	9.92
359.827	11.92
359.957	9.92
360.087	18.92
360.217	4.92
360.347	-1.08
360.477	14.92
360.607	-6.08
360.737	23.92
360.866	-0.08
360.996	-4.08
361.126	-10.08
361.256	16.92
361.386	9.92
361.516	30.92
361.645	-1.08
361.775	14.92
361.905	-15.08
362.035	-3.08
362.165	19.92
362.294	23.92
362.424	26.92
362.554	19.92
362.684	14.92
362.813	23.92
362.943	11.92
363.073	16.92
363.203	23.92
363.332	16.92
363.462	-3.08
363.592	6.92
363.721	-13.08
363.851	10.92
363.981	14.92
364.111	-6.08
364.24	-27.08
364.37	23.92
364.5	24.92
364.629	20.92
364.759	2.92
364.888	0.92
365.018	22.92
365.148	19.92
365.277	24.92
365.407	8.92
365.537	18.92
365.666	-3.08
365.796	-5.08
365.925	23.92
366.055	19.92
366.184	12.92
366.314	5.92
366.444	15.92
366.573	13.92
366.703	25.92
366.832	56.92
366.962	0.92
367.091	24.92
367.221	17.92
367.35	25.92
367.48	22.92
367.609	22.92
367.739	14.92
367.868	-1.08
367.998	13.92
368.127	37.92
368.257	25.92
368.386	35.92
368.516	27.92
368.645	12.92
368.775	18.92
368.904	16.92
369.033	0.92
369.163	8.92
369.292	39.92
369.422	26.92
369.551	16.92
369.68	11.92
369.81	20.92
369.939	13.92
370.069	12.92
370.198	15.92
370.327	-6.08
370.457	5.92
370.586	26.92
370.715	5.92
370.845	-4.08
370.974	22.92
371.103	0.92
371.233	27.92
371.362	15.92
371.491	8.92
371.621	27.92
371.75	26.92
371.879	-13.08
372.008	13.92
372.138	13.92
372.267	27.92
372.396	17.92
372.525	19.92
372.655	6.92
372.784	6.92
372.913	2.92
373.042	7.92
373.172	21.92
373.301	-17.08
373.43	5.92
373.559	2.92
373.688	16.92
373.818	18.92
373.947	14.92
374.076	13.92
374.205	-2.08
374.334	-3.08
374.463	1.92
374.593	11.92
374.722	9.92
374.851	50.92
374.98	0.92
375.109	15.92
375.238	18.92
375.367	39.92
375.496	-5.08
375.625	-8.08
375.755	15.92
375.884	37.92
376.013	21.92
376.142	16.92
376.271	0.92
376.4	18.92
376.529	9.92
376.658	19.92
376.787	2.92
376.916	20.92
377.045	8.92
377.174	22.92
377.303	11.92
377.432	18.92
377.561	22.92
377.69	19.92
377.819	31.92
377.948	6.92
378.077	-0.08
378.206	24.92
378.335	7.92
378.464	40.92
378.593	16.92
378.722	6.92
378.851	13.92
378.98	24.92
379.108	-4.08
379.237	-3.08
379.366	14.92
379.495	27.92
379.624	29.92
379.753	8.92
379.882	11.92
380.011	14.92
380.14	-6.08
380.268	19.92
380.397	17.92
380.526	24.92
380.655	-2.08
380.784	-6.08
380.913	-10.08
381.041	24.92
381.17	-12.08
381.299	-2.08
381.428	10.92
381.557	8.92
381.685	16.92
381.814	7.92
381.943	0.92
382.072	13.92
382.2	-2.08
382.329	22.92
382.458	4.92
382.587	17.92
382.715	31.92
382.844	5.92
382.973	10.92
383.102	4.92
383.23	11.92
383.359	-5.08
383.488	26.92
383.616	10.92
383.745	-2.08
383.874	21.92
384.003	-11.08
384.131	-9.08
384.26	9.92
384.389	20.92
384.517	12.92
384.646	-7.08
384.774	1.92
384.903	27.92
385.032	24.92
385.16	10.92
385.289	23.92
385.418	3.92
385.546	26.92
385.675	1.92
385.803	9.92
385.932	2.92
386.06	-8.08
386.189	21.92
386.318	13.92
386.446	6.92
386.575	17.92
386.703	3.92
386.832	2.92
386.96	-4.08
387.089	31.92
387.217	16.92
387.346	4.92
387.474	23.92
387.603	10.92
387.731	10.92
387.86	20.92
387.988	20.92
388.117	31.92
388.245	16.92
388.374	3.92
388.502	3.92
388.631	-3.08
388.759	-0.08
388.888	6.92
389.016	-5.08
389.144	0.92
389.273	13.92
389.401	12.92
389.53	-2.08
389.658	28.92
389.786	-10.08
389.915	5.92
390.043	9.92
390.172	7.92
390.3	22.92
390.428	9.92
390.557	-5.08
390.685	30.92
390.813	17.92
390.942	8.92
391.07	15.92
391.198	12.92
391.327	10.92
391.455	-1.08
391.583	37.92
391.712	9.92
391.84	13.92
391.968	8.92
392.096	12.92
392.225	3.92
392.353	19.92
392.481	-2.08
392.609	24.92
392.738	6.92
392.866	10.92
392.994	10.92
393.122	25.92
393.251	-1.08
393.379	12.92
393.507	-2.08
393.635	4.92
393.764	18.92
393.892	25.92
394.02	16.92
394.148	10.92
394.276	23.92
394.404	36.92
394.533	9.92
394.661	12.92
394.789	21.92
394.917	31.92
395.045	0.92
395.173	6.92
395.302	-11.08
395.43	11.92
395.558	12.92
395.686	22.92
395.814	1.92
395.942	6.92
396.07	10.92
396.198	9.92
396.326	9.92
396.454	16.92
396.582	5.92
396.711	-19.08
396.839	29.92
396.967	14.92
397.095	15.92
397.223	28.92
397.351	11.92
397.479	29.92
397.607	13.92
397.735	12.92
397.863	30.92
397.991	-2.08
398.119	7.92
398.247	13.92
398.375	10.92
398.503	10.92
398.631	-7.08
398.759	14.92
398.887	0.92
399.015	3.92
399.143	5.92
399.271	23.92
399.399	22.92
399.526	19.92
399.654	20.92
399.782	2.92
399.91	42.92
400.038	32.92
400.166	8.92
400.294	0.92
400.422	-6.08
400.55	9.92
400.678	25.92
400.805	16.92
400.933	16.92
401.061	10.92
401.189	0.92
401.317	21.92
401.445	19.92
401.573	19.92
401.7	10.92
401.828	9.92
401.956	5.92
402.084	6.92
402.212	22.92
402.34	14.92
402.467	13.92
402.595	19.92
402.723	9.92
402.851	32.92
402.978	4.92
403.106	15.92
403.234	8.92
403.362	25.92
403.489	14.92
403.617	19.92
403.745	24.92
403.873	5.92
404	1.92
404.128	4.92
404.256	24.92
404.384	31.92
404.511	22.92
404.639	16.92
404.767	6.92
404.894	16.92
405.022	4.92
405.15	22.92
405.277	-0.08
405.405	1.92
405.533	0.92
405.66	3.92
405.788	-5.08
405.916	-18.08
406.043	5.92
406.171	-3.08
406.299	21.92
406.426	13.92
406.554	29.92
406.681	35.92
406.809	18.92
406.937	-2.08
407.064	-2.08
407.192	18.92
407.319	14.92
407.447	-10.08
407.574	27.92
407.702	16.92
407.83	-14.08
407.957	-1.08
408.085	20.92
408.212	-0.08
408.34	6.92
408.467	10.92
408.595	24.92
408.722	24.92
408.85	21.92
408.977	14.92
409.105	29.92
409.232	8.92
409.36	18.92
409.487	7.92
409.615	15.92
409.742	26.92
409.87	33.92
409.997	40.92
410.125	45.92
410.252	65.92
410.379	64.92
410.507	32.92
410.634	12.92
410.762	26.92
410.889	37.92
411.017	-0.08
411.144	11.92
411.271	5.92
411.399	12.92
411.526	23.92
411.653	12.92
411.781	42.92
411.908	16.92
412.036	9.92
412.163	31.92
412.29	31.92
412.418	19.92
412.545	21.92
412.672	15.92
412.8	25.92
412.927	19.92
413.054	29.92
413.182	1.92
413.309	12.92
413.436	0.92
413.564	4.92
413.691	0.92
413.818	30.92
413.945	-7.08
414.073	5.92
414.2	15.92
414.327	18.92
414.454	13.92
414.582	17.92
414.709	8.92
414.836	8.92
414.963	17.92
415.091	11.92
415.218	4.92
415.345	30.92
415.472	32.92
415.6	-3.08
415.727	18.92
415.854	13.92
415.981	-0.08
416.108	12.92
416.236	2.92
416.363	22.92
416.49	6.92
416.617	15.92
416.744	23.92
416.871	20.92
416.998	16.92
417.126	-4.08
417.253	-4.08
417.38	24.92
417.507	6.92
417.634	13.92
417.761	16.92
417.888	24.92
418.015	37.92
418.143	37.92
418.27	36.92
418.397	9.92
418.524	11.92
418.651	-0.08
418.778	22.92
418.905	40.92
419.032	28.92
419.159	22.92
419.286	31.92
419.413	26.92
419.54	25.92
419.667	7.92
419.794	-6.08
419.921	-5.08
420.048	14.92
420.175	8.92
420.302	3.92
420.429	17.92
420.556	13.92
420.683	5.92
420.81	3.92
420.937	20.92
