Data from LowRes_H2_15_26_11_07_2024_HR4C61881__75__15-28-21-136.txt Node

Date: Thu Nov 07 15:28:21 EST 2024
User: crc00042
Spectrometer: HR4C6188
Trigger mode: 4
Integration Time (sec): 1.000000E-1
Scans to average: 1
Electric dark correction enabled: true
Nonlinearity correction enabled: false
Boxcar width: 0
XAxis mode: Wavelengths
Number of Pixels in Spectrum: 3648
>>>>>Begin Spectral Data<<<<<
245.66	-123.77
245.797	-123.77
245.934	-123.77
246.071	-78.77
246.208	3.23
246.344	18.23
246.481	-14.77
246.618	-0.77
246.755	25.23
246.892	13.23
247.029	-10.77
247.165	-23.77
247.302	9.23
247.439	4.23
247.576	2.23
247.713	-6.77
247.849	2.23
247.986	-17.77
248.123	-9.77
248.26	1.23
248.396	-4.77
248.533	-3.77
248.67	-9.77
248.806	-4.77
248.943	-30.77
249.08	-8.77
249.216	13.23
249.353	-20.77
249.49	1.23
249.626	3.23
249.763	-12.77
249.9	-8.77
250.036	-11.77
250.173	1.23
250.309	4.23
250.446	26.23
250.582	0.23
250.719	-6.77
250.856	-1.77
250.992	0.23
251.129	0.23
251.265	-16.77
251.402	18.23
251.538	2.23
251.675	-14.77
251.811	9.23
251.948	6.23
252.084	3.23
252.221	-6.77
252.357	-5.77
252.493	31.23
252.63	-23.77
252.766	19.23
252.903	8.23
253.039	4.23
253.175	-16.77
253.312	9.23
253.448	-22.77
253.585	-13.77
253.721	14.23
253.857	-6.77
253.994	8.23
254.13	-9.77
254.266	0.23
254.403	-6.77
254.539	-4.77
254.675	25.23
254.811	23.23
254.948	4.23
255.084	-18.77
255.22	-0.77
255.356	-2.77
255.493	21.23
255.629	-10.77
255.765	-0.77
255.901	1.23
256.037	16.23
256.174	16.23
256.31	-0.77
256.446	-9.77
256.582	-12.77
256.718	3.23
256.854	13.23
256.991	10.23
257.127	-5.77
257.263	-3.77
257.399	-3.77
257.535	1.23
257.671	-10.77
257.807	-20.77
257.943	-18.77
258.079	-0.77
258.215	-0.77
258.351	19.23
258.487	16.23
258.623	15.23
258.759	7.23
258.895	7.23
259.031	0.23
259.167	-17.77
259.303	25.23
259.439	-2.77
259.575	-15.77
259.711	-10.77
259.847	-3.77
259.983	15.23
260.119	-6.77
260.255	-5.77
260.391	11.23
260.527	-3.77
260.663	10.23
260.799	6.23
260.934	-4.77
261.07	-6.77
261.206	-18.77
261.342	-16.77
261.478	-0.77
261.614	1.23
261.749	7.23
261.885	-10.77
262.021	-6.77
262.157	0.23
262.293	-7.77
262.428	-16.77
262.564	-5.77
262.7	-14.77
262.836	4.23
262.971	26.23
263.107	19.23
263.243	19.23
263.378	-1.77
263.514	-18.77
263.65	-13.77
263.785	-20.77
263.921	-24.77
264.057	5.23
264.192	10.23
264.328	16.23
264.464	0.23
264.599	11.23
264.735	19.23
264.871	-8.77
265.006	2.23
265.142	2.23
265.277	-6.77
265.413	12.23
265.548	7.23
265.684	9.23
265.819	-0.77
265.955	-2.77
266.091	-19.77
266.226	-20.77
266.362	-20.77
266.497	2.23
266.633	-14.77
266.768	-6.77
266.903	27.23
267.039	6.23
267.174	2.23
267.31	-8.77
267.445	-2.77
267.581	-4.77
267.716	11.23
267.851	-6.77
267.987	0.23
268.122	46.23
268.258	-0.77
268.393	-16.77
268.528	4.23
268.664	-17.77
268.799	-34.77
268.934	4.23
269.07	-6.77
269.205	6.23
269.34	22.23
269.476	-0.77
269.611	-20.77
269.746	0.23
269.881	-9.77
270.017	13.23
270.152	23.23
270.287	25.23
270.422	3.23
270.558	-5.77
270.693	-4.77
270.828	8.23
270.963	-12.77
271.098	-20.77
271.234	6.23
271.369	20.23
271.504	11.23
271.639	3.23
271.774	-1.77
271.909	1.23
272.045	-23.77
272.18	-4.77
272.315	-4.77
272.45	11.23
272.585	-11.77
272.72	-1.77
272.855	-8.77
272.99	19.23
273.125	-3.77
273.26	-13.77
273.395	-5.77
273.53	-14.77
273.665	-1.77
273.8	-0.77
273.935	-1.77
274.07	-5.77
274.205	2.23
274.34	3.23
274.475	-5.77
274.61	17.23
274.745	-11.77
274.88	20.23
275.015	-7.77
275.15	-13.77
275.285	-3.77
275.42	-6.77
275.555	6.23
275.69	-1.77
275.825	3.23
275.959	15.23
276.094	6.23
276.229	-4.77
276.364	-4.77
276.499	-3.77
276.634	1.23
276.768	-6.77
276.903	0.23
277.038	14.23
277.173	4.23
277.308	-1.77
277.442	-9.77
277.577	-13.77
277.712	-13.77
277.847	-6.77
277.981	2.23
278.116	-16.77
278.251	-12.77
278.386	-4.77
278.52	2.23
278.655	-17.77
278.79	3.23
278.924	11.23
279.059	8.23
279.194	-7.77
279.328	29.23
279.463	2.23
279.598	25.23
279.732	10.23
279.867	-0.77
280.001	0.23
280.136	8.23
280.271	10.23
280.405	0.23
280.54	-2.77
280.674	-4.77
280.809	17.23
280.943	7.23
281.078	0.23
281.213	19.23
281.347	23.23
281.482	10.23
281.616	-14.77
281.751	-9.77
281.885	-23.77
282.02	-14.77
282.154	15.23
282.288	-21.77
282.423	-5.77
282.557	-10.77
282.692	-6.77
282.826	-12.77
282.961	6.23
283.095	-13.77
283.229	-19.77
283.364	-32.77
283.498	-3.77
283.633	8.23
283.767	8.23
283.901	2.23
284.036	-0.77
284.17	3.23
284.304	-11.77
284.439	-12.77
284.573	-14.77
284.707	11.23
284.842	3.23
284.976	-48.77
285.11	-23.77
285.244	21.23
285.379	25.23
285.513	-13.77
285.647	9.23
285.781	5.23
285.916	17.23
286.05	3.23
286.184	29.23
286.318	6.23
286.453	6.23
286.587	-23.77
286.721	-3.77
286.855	1.23
286.989	18.23
287.123	-22.77
287.258	-18.77
287.392	5.23
287.526	-4.77
287.66	9.23
287.794	9.23
287.928	6.23
288.062	-2.77
288.196	-6.77
288.33	4.23
288.464	1.23
288.598	14.23
288.733	22.23
288.867	12.23
289.001	4.23
289.135	-3.77
289.269	2.23
289.403	0.23
289.537	-3.77
289.671	8.23
289.805	-1.77
289.939	-1.77
290.073	-13.77
290.207	0.23
290.34	-6.77
290.474	13.23
290.608	-13.77
290.742	8.23
290.876	-12.77
291.01	2.23
291.144	18.23
291.278	19.23
291.412	5.23
291.546	-12.77
291.679	-4.77
291.813	-27.77
291.947	7.23
292.081	-8.77
292.215	7.23
292.349	3.23
292.482	22.23
292.616	-15.77
292.75	2.23
292.884	4.23
293.018	1.23
293.151	-18.77
293.285	9.23
293.419	2.23
293.553	-16.77
293.686	-13.77
293.82	2.23
293.954	32.23
294.088	38.23
294.221	14.23
294.355	0.23
294.489	-6.77
294.622	-22.77
294.756	-13.77
294.89	-3.77
295.023	0.23
295.157	6.23
295.291	15.23
295.424	23.23
295.558	19.23
295.691	-7.77
295.825	16.23
295.959	3.23
296.092	-1.77
296.226	-17.77
296.359	-2.77
296.493	-8.77
296.627	12.23
296.76	-14.77
296.894	-3.77
297.027	6.23
297.161	-4.77
297.294	-24.77
297.428	-4.77
297.561	18.23
297.695	-1.77
297.828	0.23
297.962	-1.77
298.095	-10.77
298.229	-2.77
298.362	-0.77
298.495	-0.77
298.629	-5.77
298.762	-2.77
298.896	1.23
299.029	-9.77
299.162	3.23
299.296	-10.77
299.429	-11.77
299.563	8.23
299.696	5.23
299.829	11.23
299.963	24.23
300.096	11.23
300.229	20.23
300.363	-2.77
300.496	5.23
300.629	-24.77
300.763	-0.77
300.896	19.23
301.029	9.23
301.162	-5.77
301.296	5.23
301.429	9.23
301.562	-22.77
301.695	-2.77
301.829	11.23
301.962	27.23
302.095	-7.77
302.228	-18.77
302.362	12.23
302.495	-6.77
302.628	1.23
302.761	-4.77
302.894	-8.77
303.027	13.23
303.161	1.23
303.294	-11.77
303.427	9.23
303.56	7.23
303.693	11.23
303.826	-8.77
303.959	-17.77
304.092	-0.77
304.225	-20.77
304.359	-5.77
304.492	2.23
304.625	-8.77
304.758	0.23
304.891	-9.77
305.024	-23.77
305.157	-1.77
305.29	-24.77
305.423	-5.77
305.556	-8.77
305.689	8.23
305.822	2.23
305.955	-10.77
306.088	1.23
306.221	1.23
306.354	-7.77
306.487	-3.77
306.62	-13.77
306.752	-8.77
306.885	-2.77
307.018	-11.77
307.151	-11.77
307.284	25.23
307.417	-9.77
307.55	0.23
307.683	-7.77
307.816	20.23
307.948	9.23
308.081	13.23
308.214	19.23
308.347	19.23
308.48	-27.77
308.613	-17.77
308.745	-2.77
308.878	1.23
309.011	1.23
309.144	0.23
309.277	-0.77
309.409	10.23
309.542	-5.77
309.675	-9.77
309.808	8.23
309.94	18.23
310.073	-5.77
310.206	-12.77
310.339	11.23
310.471	-15.77
310.604	26.23
310.737	-0.77
310.869	-12.77
311.002	-0.77
311.135	6.23
311.267	-30.77
311.4	1.23
311.533	19.23
311.665	-1.77
311.798	-7.77
311.93	-4.77
312.063	10.23
312.196	9.23
312.328	4.23
312.461	-5.77
312.593	0.23
312.726	5.23
312.859	0.23
312.991	8.23
313.124	-31.77
313.256	2.23
313.389	1.23
313.521	7.23
313.654	6.23
313.786	-13.77
313.919	3.23
314.051	-2.77
314.184	5.23
314.316	5.23
314.449	-14.77
314.581	-18.77
314.714	0.23
314.846	12.23
314.978	-0.77
315.111	-2.77
315.243	9.23
315.376	2.23
315.508	4.23
315.641	4.23
315.773	17.23
315.905	-0.77
316.038	1.23
316.17	-4.77
316.302	8.23
316.435	8.23
316.567	10.23
316.699	16.23
316.832	-2.77
316.964	-4.77
317.096	-13.77
317.229	2.23
317.361	-33.77
317.493	-6.77
317.625	-10.77
317.758	4.23
317.89	0.23
318.022	0.23
318.155	6.23
318.287	-11.77
318.419	0.23
318.551	5.23
318.683	-2.77
318.816	-29.77
318.948	-0.77
319.08	-12.77
319.212	0.23
319.344	9.23
319.477	-13.77
319.609	-3.77
319.741	14.23
319.873	5.23
320.005	-8.77
320.137	-2.77
320.269	7.23
320.401	0.23
320.534	1.23
320.666	-28.77
320.798	-33.77
320.93	14.23
321.062	-10.77
321.194	-14.77
321.326	-20.77
321.458	-0.77
321.59	-13.77
321.722	-20.77
321.854	-20.77
321.986	-10.77
322.118	-0.77
322.25	-9.77
322.382	7.23
322.514	-6.77
322.646	-11.77
322.778	11.23
322.91	6.23
323.042	-2.77
323.174	-17.77
323.306	-5.77
323.438	-0.77
323.57	-5.77
323.702	5.23
323.834	16.23
323.966	-27.77
324.097	-14.77
324.229	12.23
324.361	20.23
324.493	13.23
324.625	9.23
324.757	7.23
324.889	-9.77
325.021	-3.77
325.152	-0.77
325.284	20.23
325.416	4.23
325.548	26.23
325.68	3.23
325.811	25.23
325.943	-1.77
326.075	-4.77
326.207	14.23
326.339	11.23
326.47	-8.77
326.602	4.23
326.734	6.23
326.866	25.23
326.997	-28.77
327.129	-10.77
327.261	-25.77
327.392	-0.77
327.524	-13.77
327.656	-13.77
327.787	13.23
327.919	6.23
328.051	4.23
328.182	20.23
328.314	9.23
328.446	13.23
328.577	-0.77
328.709	-7.77
328.841	-27.77
328.972	3.23
329.104	-6.77
329.235	5.23
329.367	4.23
329.499	5.23
329.63	-3.77
329.762	5.23
329.893	13.23
330.025	-14.77
330.156	-14.77
330.288	12.23
330.419	11.23
330.551	3.23
330.683	-1.77
330.814	-5.77
330.946	5.23
331.077	-0.77
331.208	-0.77
331.34	-24.77
331.471	-15.77
331.603	-9.77
331.734	-13.77
331.866	6.23
331.997	-7.77
332.129	-1.77
332.26	-4.77
332.392	5.23
332.523	10.23
332.654	-4.77
332.786	-5.77
332.917	0.23
333.048	14.23
333.18	16.23
333.311	-5.77
333.443	0.23
333.574	-16.77
333.705	14.23
333.837	-15.77
333.968	0.23
334.099	16.23
334.231	28.23
334.362	-5.77
334.493	11.23
334.624	-2.77
334.756	-1.77
334.887	-3.77
335.018	-1.77
335.15	-1.77
335.281	-17.77
335.412	-1.77
335.543	7.23
335.675	10.23
335.806	5.23
335.937	10.23
336.068	10.23
336.199	34.23
336.331	0.23
336.462	3.23
336.593	7.23
336.724	-4.77
336.855	-3.77
336.986	6.23
337.118	2.23
337.249	-0.77
337.38	-6.77
337.511	-16.77
337.642	-6.77
337.773	-12.77
337.904	-3.77
338.035	5.23
338.166	-6.77
338.298	-12.77
338.429	-1.77
338.56	7.23
338.691	28.23
338.822	4.23
338.953	11.23
339.084	22.23
339.215	27.23
339.346	-4.77
339.477	10.23
339.608	21.23
339.739	-2.77
339.87	-9.77
340.001	-9.77
340.132	9.23
340.263	-0.77
340.394	14.23
340.525	3.23
340.656	-21.77
340.787	-13.77
340.918	26.23
341.049	5.23
341.179	7.23
341.31	5.23
341.441	-4.77
341.572	8.23
341.703	-12.77
341.834	-28.77
341.965	-10.77
342.096	0.23
342.227	12.23
342.357	3.23
342.488	-9.77
342.619	5.23
342.75	5.23
342.881	-15.77
343.012	2.23
343.142	6.23
343.273	-15.77
343.404	-0.77
343.535	17.23
343.666	20.23
343.796	3.23
343.927	14.23
344.058	4.23
344.189	9.23
344.319	8.23
344.45	-11.77
344.581	5.23
344.712	-1.77
344.842	-12.77
344.973	-5.77
345.104	-3.77
345.234	1.23
345.365	0.23
345.496	-22.77
345.626	-1.77
345.757	7.23
345.888	1.23
346.018	-0.77
346.149	-3.77
346.28	21.23
346.41	-4.77
346.541	8.23
346.672	-13.77
346.802	12.23
346.933	11.23
347.063	21.23
347.194	13.23
347.325	-0.77
347.455	4.23
347.586	-10.77
347.716	-12.77
347.847	14.23
347.977	1.23
348.108	14.23
348.238	2.23
348.369	5.23
348.499	9.23
348.63	-13.77
348.76	9.23
348.891	5.23
349.021	-8.77
349.152	-7.77
349.282	-6.77
349.413	4.23
349.543	23.23
349.674	-19.77
349.804	4.23
349.935	-5.77
350.065	-3.77
350.196	1.23
350.326	-6.77
350.456	-25.77
350.587	14.23
350.717	3.23
350.848	9.23
350.978	25.23
351.108	-2.77
351.239	-5.77
351.369	-3.77
351.499	10.23
351.63	16.23
351.76	-0.77
351.89	-2.77
352.021	16.23
352.151	-4.77
352.281	10.23
352.412	37.23
352.542	-7.77
352.672	-13.77
352.803	-3.77
352.933	10.23
353.063	-9.77
353.193	-12.77
353.324	-10.77
353.454	3.23
353.584	25.23
353.714	8.23
353.845	10.23
353.975	-13.77
354.105	-9.77
354.235	-4.77
354.365	-11.77
354.496	-20.77
354.626	9.23
354.756	-14.77
354.886	-4.77
355.016	10.23
355.146	-4.77
355.277	-13.77
355.407	-8.77
355.537	8.23
355.667	5.23
355.797	7.23
355.927	-8.77
356.057	17.23
356.187	-9.77
356.318	-10.77
356.448	3.23
356.578	13.23
356.708	28.23
356.838	3.23
356.968	1.23
357.098	8.23
357.228	3.23
357.358	7.23
357.488	-0.77
357.618	16.23
357.748	17.23
357.878	1.23
358.008	3.23
358.138	-7.77
358.268	-3.77
358.398	6.23
358.528	-2.77
358.658	11.23
358.788	-1.77
358.918	18.23
359.048	-1.77
359.178	19.23
359.308	-1.77
359.438	14.23
359.568	11.23
359.698	11.23
359.827	8.23
359.957	-1.77
360.087	3.23
360.217	-2.77
360.347	24.23
360.477	17.23
360.607	-14.77
360.737	11.23
360.866	-17.77
360.996	-11.77
361.126	7.23
361.256	15.23
361.386	8.23
361.516	18.23
361.645	-8.77
361.775	17.23
361.905	-1.77
362.035	3.23
362.165	-1.77
362.294	6.23
362.424	17.23
362.554	4.23
362.684	-2.77
362.813	-9.77
362.943	9.23
363.073	-10.77
363.203	12.23
363.332	7.23
363.462	-10.77
363.592	3.23
363.721	-9.77
363.851	4.23
363.981	43.23
364.111	-5.77
364.24	-33.77
364.37	9.23
364.5	28.23
364.629	-4.77
364.759	-12.77
364.888	-9.77
365.018	-6.77
365.148	15.23
365.277	4.23
365.407	18.23
365.537	8.23
365.666	-0.77
365.796	-12.77
365.925	-12.77
366.055	11.23
366.184	-11.77
366.314	8.23
366.444	22.23
366.573	3.23
366.703	-2.77
366.832	11.23
366.962	9.23
367.091	26.23
367.221	10.23
367.35	-8.77
367.48	23.23
367.609	1.23
367.739	15.23
367.868	1.23
367.998	3.23
368.127	21.23
368.257	8.23
368.386	21.23
368.516	25.23
368.645	11.23
368.775	8.23
368.904	7.23
369.033	2.23
369.163	6.23
369.292	23.23
369.422	20.23
369.551	7.23
369.68	10.23
369.81	12.23
369.939	18.23
370.069	7.23
370.198	0.23
370.327	-3.77
370.457	4.23
370.586	17.23
370.715	-10.77
370.845	0.23
370.974	12.23
371.103	9.23
371.233	21.23
371.362	12.23
371.491	-4.77
371.621	21.23
371.75	12.23
371.879	-12.77
372.008	2.23
372.138	-0.77
372.267	4.23
372.396	16.23
372.525	5.23
372.655	-0.77
372.784	-21.77
372.913	2.23
373.042	4.23
373.172	17.23
373.301	-6.77
373.43	-13.77
373.559	-0.77
373.688	12.23
373.818	24.23
373.947	6.23
374.076	0.23
374.205	3.23
374.334	-7.77
374.463	-5.77
374.593	10.23
374.722	21.23
374.851	-1.77
374.98	-11.77
375.109	15.23
375.238	4.23
375.367	35.23
375.496	-19.77
375.625	4.23
375.755	16.23
375.884	28.23
376.013	30.23
376.142	-11.77
376.271	-16.77
376.4	-5.77
376.529	18.23
376.658	4.23
376.787	9.23
376.916	13.23
377.045	-0.77
377.174	14.23
377.303	6.23
377.432	22.23
377.561	22.23
377.69	7.23
377.819	18.23
377.948	-5.77
378.077	-15.77
378.206	-7.77
378.335	8.23
378.464	5.23
378.593	34.23
378.722	28.23
378.851	13.23
378.98	21.23
379.108	-18.77
379.237	-17.77
379.366	1.23
379.495	14.23
379.624	3.23
379.753	-1.77
379.882	6.23
380.011	-8.77
380.14	-6.77
380.268	-1.77
380.397	-1.77
380.526	18.23
380.655	-1.77
380.784	-18.77
380.913	-12.77
381.041	10.23
381.17	-8.77
381.299	5.23
381.428	6.23
381.557	7.23
381.685	9.23
381.814	17.23
381.943	-13.77
382.072	-16.77
382.2	-14.77
382.329	1.23
382.458	-1.77
382.587	27.23
382.715	38.23
382.844	2.23
382.973	15.23
383.102	14.23
383.23	10.23
383.359	-1.77
383.488	13.23
383.616	-6.77
383.745	-4.77
383.874	-4.77
384.003	-1.77
384.131	8.23
384.26	-8.77
384.389	20.23
384.517	-12.77
384.646	4.23
384.774	-12.77
384.903	35.23
385.032	5.23
385.16	1.23
385.289	-17.77
385.418	8.23
385.546	-12.77
385.675	19.23
385.803	7.23
385.932	11.23
386.06	0.23
386.189	-8.77
386.318	29.23
386.446	9.23
386.575	19.23
386.703	14.23
386.832	11.23
386.96	4.23
387.089	7.23
387.217	-2.77
387.346	-0.77
387.474	1.23
387.603	-11.77
387.731	0.23
387.86	1.23
387.988	7.23
388.117	4.23
388.245	5.23
388.374	-8.77
388.502	3.23
388.631	-1.77
388.759	8.23
388.888	5.23
389.016	-6.77
389.144	0.23
389.273	-1.77
389.401	-19.77
389.53	-8.77
389.658	8.23
389.786	-0.77
389.915	-18.77
390.043	0.23
390.172	6.23
390.3	24.23
390.428	18.23
390.557	-7.77
390.685	1.23
390.813	7.23
390.942	6.23
391.07	6.23
391.198	-4.77
391.327	2.23
391.455	-3.77
391.583	25.23
391.712	20.23
391.84	13.23
391.968	-2.77
392.096	12.23
392.225	11.23
392.353	7.23
392.481	12.23
392.609	25.23
392.738	25.23
392.866	20.23
392.994	-3.77
393.122	23.23
393.251	-2.77
393.379	-4.77
393.507	-14.77
393.635	17.23
393.764	12.23
393.892	36.23
394.02	3.23
394.148	0.23
394.276	21.23
394.404	30.23
394.533	-1.77
394.661	13.23
394.789	-4.77
394.917	13.23
395.045	-8.77
395.173	-2.77
395.302	7.23
395.43	3.23
395.558	9.23
395.686	9.23
395.814	1.23
395.942	-6.77
396.07	15.23
396.198	11.23
396.326	20.23
396.454	3.23
396.582	11.23
396.711	-11.77
396.839	3.23
396.967	7.23
397.095	1.23
397.223	25.23
397.351	26.23
397.479	11.23
397.607	-0.77
397.735	8.23
397.863	29.23
397.991	11.23
398.119	-4.77
398.247	-1.77
398.375	2.23
398.503	-7.77
398.631	2.23
398.759	13.23
398.887	5.23
399.015	8.23
399.143	-5.77
399.271	17.23
399.399	8.23
399.526	8.23
399.654	9.23
399.782	-5.77
399.91	2.23
400.038	23.23
400.166	1.23
400.294	-8.77
400.422	-2.77
400.55	-0.77
400.678	6.23
400.805	-3.77
400.933	14.23
401.061	24.23
401.189	15.23
401.317	26.23
401.445	20.23
401.573	20.23
401.7	4.23
401.828	-8.77
401.956	1.23
402.084	12.23
402.212	15.23
402.34	15.23
402.467	4.23
402.595	5.23
402.723	9.23
402.851	31.23
402.978	15.23
403.106	27.23
403.234	-5.77
403.362	32.23
403.489	30.23
403.617	22.23
403.745	5.23
403.873	3.23
404	20.23
404.128	30.23
404.256	22.23
404.384	29.23
404.511	12.23
404.639	-1.77
404.767	-9.77
404.894	23.23
405.022	13.23
405.15	11.23
405.277	-5.77
405.405	10.23
405.533	13.23
405.66	-8.77
405.788	-9.77
405.916	-2.77
406.043	-13.77
406.171	-13.77
406.299	6.23
406.426	6.23
406.554	0.23
406.681	17.23
406.809	-12.77
406.937	6.23
407.064	3.23
407.192	21.23
407.319	5.23
407.447	5.23
407.574	17.23
407.702	18.23
407.83	-21.77
407.957	-10.77
408.085	-14.77
408.212	-6.77
408.34	5.23
408.467	1.23
408.595	22.23
408.722	25.23
408.85	16.23
408.977	9.23
409.105	-4.77
409.232	-8.77
409.36	4.23
409.487	4.23
409.615	15.23
409.742	28.23
409.87	22.23
409.997	19.23
410.125	36.23
410.252	41.23
410.379	57.23
410.507	29.23
410.634	19.23
410.762	4.23
410.889	29.23
411.017	16.23
411.144	16.23
411.271	-11.77
411.399	-3.77
411.526	15.23
411.653	12.23
411.781	41.23
411.908	5.23
412.036	-4.77
412.163	17.23
412.29	12.23
412.418	10.23
412.545	18.23
412.672	7.23
412.8	41.23
412.927	18.23
413.054	16.23
413.182	20.23
413.309	12.23
413.436	-4.77
413.564	24.23
413.691	4.23
413.818	10.23
413.945	-21.77
414.073	-11.77
414.2	11.23
414.327	9.23
414.454	17.23
414.582	17.23
414.709	-18.77
414.836	-5.77
414.963	-0.77
415.091	8.23
415.218	2.23
415.345	15.23
415.472	12.23
415.6	11.23
415.727	11.23
415.854	14.23
415.981	-2.77
416.108	-17.77
416.236	-4.77
416.363	8.23
416.49	4.23
416.617	12.23
416.744	20.23
416.871	23.23
416.998	5.23
417.126	-3.77
417.253	1.23
417.38	10.23
417.507	-1.77
417.634	-2.77
417.761	20.23
417.888	10.23
418.015	-0.77
418.143	16.23
418.27	32.23
418.397	9.23
418.524	-5.77
418.651	-2.77
418.778	13.23
418.905	21.23
419.032	23.23
419.159	-0.77
419.286	26.23
419.413	9.23
419.54	20.23
419.667	0.23
419.794	-15.77
419.921	7.23
