Data from LowRes_H2_15_26_11_07_2024_HR4C61881__71__15-28-20-737.txt Node

Date: Thu Nov 07 15:28:20 EST 2024
User: crc00042
Spectrometer: HR4C6188
Trigger mode: 4
Integration Time (sec): 1.000000E-1
Scans to average: 1
Electric dark correction enabled: true
Nonlinearity correction enabled: false
Boxcar width: 0
XAxis mode: Wavelengths
Number of Pixels in Spectrum: 3648
>>>>>Begin Spectral Data<<<<<
245.66	-113.08
245.797	-113.08
245.934	-113.08
246.071	-50.08
246.208	13.92
246.344	10.92
246.481	-1.08
246.618	0.92
246.755	21.92
246.892	-7.08
247.029	-13.08
247.165	-4.08
247.302	9.92
247.439	2.92
247.576	4.92
247.713	-11.08
247.849	6.92
247.986	-22.08
248.123	20.92
248.26	-5.08
248.396	30.92
248.533	-11.08
248.67	-4.08
248.806	12.92
248.943	-5.08
249.08	11.92
249.216	16.92
249.353	-9.08
249.49	-5.08
249.626	10.92
249.763	-3.08
249.9	-3.08
250.036	-11.08
250.173	-0.08
250.309	3.92
250.446	16.92
250.582	5.92
250.719	-15.08
250.856	-9.08
250.992	-9.08
251.129	1.92
251.265	-4.08
251.402	0.92
251.538	-12.08
251.675	-21.08
251.811	23.92
251.948	26.92
252.084	19.92
252.221	-19.08
252.357	-9.08
252.493	28.92
252.63	10.92
252.766	8.92
252.903	6.92
253.039	1.92
253.175	1.92
253.312	8.92
253.448	-13.08
253.585	-17.08
253.721	-2.08
253.857	-8.08
253.994	10.92
254.13	12.92
254.266	-4.08
254.403	7.92
254.539	12.92
254.675	19.92
254.811	0.92
254.948	9.92
255.084	5.92
255.22	6.92
255.356	8.92
255.493	-8.08
255.629	-13.08
255.765	-10.08
255.901	25.92
256.037	7.92
256.174	-1.08
256.31	1.92
256.446	-16.08
256.582	-1.08
256.718	5.92
256.854	14.92
256.991	8.92
257.127	24.92
257.263	-0.08
257.399	4.92
257.535	-5.08
257.671	-7.08
257.807	-19.08
257.943	-16.08
258.079	-34.08
258.215	-2.08
258.351	11.92
258.487	6.92
258.623	38.92
258.759	13.92
258.895	-6.08
259.031	-1.08
259.167	-11.08
259.303	16.92
259.439	-15.08
259.575	4.92
259.711	1.92
259.847	-9.08
259.983	16.92
260.119	2.92
260.255	-4.08
260.391	7.92
260.527	8.92
260.663	9.92
260.799	6.92
260.934	-5.08
261.07	-11.08
261.206	-6.08
261.342	-9.08
261.478	12.92
261.614	7.92
261.749	8.92
261.885	-1.08
262.021	13.92
262.157	21.92
262.293	-2.08
262.428	10.92
262.564	-5.08
262.7	8.92
262.836	-9.08
262.971	11.92
263.107	22.92
263.243	11.92
263.378	10.92
263.514	-14.08
263.65	2.92
263.785	-10.08
263.921	-5.08
264.057	2.92
264.192	20.92
264.328	20.92
264.464	-9.08
264.599	6.92
264.735	4.92
264.871	0.92
265.006	7.92
265.142	11.92
265.277	13.92
265.413	10.92
265.548	23.92
265.684	10.92
265.819	1.92
265.955	-6.08
266.091	4.92
266.226	-7.08
266.362	8.92
266.497	18.92
266.633	7.92
266.768	-3.08
266.903	20.92
267.039	20.92
267.174	24.92
267.31	-4.08
267.445	-7.08
267.581	-5.08
267.716	28.92
267.851	12.92
267.987	12.92
268.122	16.92
268.258	-1.08
268.393	-11.08
268.528	16.92
268.664	-4.08
268.799	-17.08
268.934	6.92
269.07	4.92
269.205	11.92
269.34	34.92
269.476	10.92
269.611	-6.08
269.746	20.92
269.881	8.92
270.017	8.92
270.152	6.92
270.287	18.92
270.422	32.92
270.558	2.92
270.693	12.92
270.828	-5.08
270.963	-8.08
271.098	-0.08
271.234	16.92
271.369	14.92
271.504	-10.08
271.639	-1.08
271.774	11.92
271.909	0.92
272.045	-11.08
272.18	-13.08
272.315	3.92
272.45	28.92
272.585	-20.08
272.72	-20.08
272.855	7.92
272.99	24.92
273.125	-2.08
273.26	-13.08
273.395	-16.08
273.53	5.92
273.665	18.92
273.8	15.92
273.935	12.92
274.07	-21.08
274.205	-6.08
274.34	14.92
274.475	8.92
274.61	47.92
274.745	8.92
274.88	35.92
275.015	-4.08
275.15	1.92
275.285	26.92
275.42	5.92
275.555	15.92
275.69	9.92
275.825	11.92
275.959	16.92
276.094	1.92
276.229	6.92
276.364	-7.08
276.499	-0.08
276.634	-6.08
276.768	-6.08
276.903	17.92
277.038	-0.08
277.173	13.92
277.308	5.92
277.442	5.92
277.577	-5.08
277.712	-9.08
277.847	-5.08
277.981	9.92
278.116	-27.08
278.251	10.92
278.386	13.92
278.52	0.92
278.655	-4.08
278.79	26.92
278.924	7.92
279.059	25.92
279.194	-2.08
279.328	43.92
279.463	5.92
279.598	13.92
279.732	4.92
279.867	31.92
280.001	7.92
280.136	-7.08
280.271	13.92
280.405	6.92
280.54	-3.08
280.674	-2.08
280.809	33.92
280.943	9.92
281.078	12.92
281.213	15.92
281.347	17.92
281.482	13.92
281.616	1.92
281.751	-13.08
281.885	-6.08
282.02	2.92
282.154	5.92
282.288	-22.08
282.423	-20.08
282.557	-19.08
282.692	15.92
282.826	0.92
282.961	1.92
283.095	8.92
283.229	11.92
283.364	-2.08
283.498	23.92
283.633	23.92
283.767	10.92
283.901	17.92
284.036	1.92
284.17	-8.08
284.304	1.92
284.439	5.92
284.573	-12.08
284.707	11.92
284.842	-13.08
284.976	-8.08
285.11	-1.08
285.244	10.92
285.379	55.92
285.513	7.92
285.647	1.92
285.781	10.92
285.916	15.92
286.05	3.92
286.184	16.92
286.318	15.92
286.453	-1.08
286.587	-6.08
286.721	-7.08
286.855	13.92
286.989	18.92
287.123	-2.08
287.258	-6.08
287.392	-2.08
287.526	1.92
287.66	-8.08
287.794	7.92
287.928	1.92
288.062	-3.08
288.196	-10.08
288.33	13.92
288.464	15.92
288.598	18.92
288.733	24.92
288.867	6.92
289.001	-2.08
289.135	-9.08
289.269	-15.08
289.403	-11.08
289.537	4.92
289.671	5.92
289.805	0.92
289.939	7.92
290.073	6.92
290.207	27.92
290.34	2.92
290.474	17.92
290.608	12.92
290.742	12.92
290.876	9.92
291.01	1.92
291.144	24.92
291.278	28.92
291.412	3.92
291.546	-3.08
291.679	-10.08
291.813	-6.08
291.947	1.92
292.081	-5.08
292.215	0.92
292.349	23.92
292.482	10.92
292.616	16.92
292.75	-0.08
292.884	9.92
293.018	3.92
293.151	-14.08
293.285	12.92
293.419	-5.08
293.553	-2.08
293.686	-7.08
293.82	8.92
293.954	22.92
294.088	29.92
294.221	-12.08
294.355	3.92
294.489	1.92
294.622	-19.08
294.756	3.92
294.89	16.92
295.023	1.92
295.157	22.92
295.291	16.92
295.424	24.92
295.558	15.92
295.691	0.92
295.825	-5.08
295.959	9.92
296.092	6.92
296.226	0.92
296.359	4.92
296.493	6.92
296.627	2.92
296.76	15.92
296.894	-9.08
297.027	1.92
297.161	8.92
297.294	0.92
297.428	0.92
297.561	15.92
297.695	-0.08
297.828	-6.08
297.962	3.92
298.095	-4.08
298.229	-3.08
298.362	-4.08
298.495	-1.08
298.629	-4.08
298.762	0.92
298.896	0.92
299.029	-21.08
299.162	-2.08
299.296	-8.08
299.429	1.92
299.563	11.92
299.696	-1.08
299.829	9.92
299.963	22.92
300.096	7.92
300.229	17.92
300.363	-2.08
300.496	6.92
300.629	-10.08
300.763	-3.08
300.896	13.92
301.029	8.92
301.162	-1.08
301.296	8.92
301.429	12.92
301.562	-7.08
301.695	15.92
301.829	13.92
301.962	22.92
302.095	-2.08
302.228	-17.08
302.362	14.92
302.495	-14.08
302.628	6.92
302.761	-2.08
302.894	19.92
303.027	7.92
303.161	-17.08
303.294	-10.08
303.427	20.92
303.56	11.92
303.693	-2.08
303.826	-12.08
303.959	-1.08
304.092	-6.08
304.225	-19.08
304.359	-1.08
304.492	0.92
304.625	20.92
304.758	22.92
304.891	-12.08
305.024	4.92
305.157	1.92
305.29	-1.08
305.423	-8.08
305.556	23.92
305.689	16.92
305.822	-5.08
305.955	-9.08
306.088	0.92
306.221	5.92
306.354	-7.08
306.487	-7.08
306.62	-1.08
306.752	-17.08
306.885	1.92
307.018	3.92
307.151	15.92
307.284	13.92
307.417	-9.08
307.55	-2.08
307.683	-12.08
307.816	6.92
307.948	19.92
308.081	7.92
308.214	16.92
308.347	21.92
308.48	8.92
308.613	3.92
308.745	8.92
308.878	-4.08
309.011	-9.08
309.144	7.92
309.277	18.92
309.409	8.92
309.542	6.92
309.675	13.92
309.808	23.92
309.94	22.92
310.073	-7.08
310.206	-11.08
310.339	7.92
310.471	-10.08
310.604	18.92
310.737	-1.08
310.869	-10.08
311.002	2.92
311.135	1.92
311.267	-8.08
311.4	5.92
311.533	23.92
311.665	-1.08
311.798	20.92
311.93	5.92
312.063	29.92
312.196	12.92
312.328	-4.08
312.461	-22.08
312.593	-2.08
312.726	19.92
312.859	18.92
312.991	11.92
313.124	-8.08
313.256	9.92
313.389	15.92
313.521	3.92
313.654	-5.08
313.786	-9.08
313.919	-12.08
314.051	4.92
314.184	12.92
314.316	1.92
314.449	-22.08
314.581	-10.08
314.714	-3.08
314.846	9.92
314.978	-11.08
315.111	-0.08
315.243	11.92
315.376	11.92
315.508	11.92
315.641	12.92
315.773	7.92
315.905	11.92
316.038	-2.08
316.17	10.92
316.302	2.92
316.435	11.92
316.567	6.92
316.699	9.92
316.832	-4.08
316.964	-3.08
317.096	-3.08
317.229	-13.08
317.361	-26.08
317.493	-11.08
317.625	-5.08
317.758	0.92
317.89	11.92
318.022	21.92
318.155	-0.08
318.287	-0.08
318.419	-0.08
318.551	-8.08
318.683	5.92
318.816	-2.08
318.948	3.92
319.08	-17.08
319.212	4.92
319.344	4.92
319.477	8.92
319.609	18.92
319.741	24.92
319.873	-8.08
320.005	2.92
320.137	-2.08
320.269	4.92
320.401	5.92
320.534	2.92
320.666	-3.08
320.798	-2.08
320.93	-3.08
321.062	-10.08
321.194	-11.08
321.326	3.92
321.458	5.92
321.59	-2.08
321.722	-10.08
321.854	4.92
321.986	4.92
322.118	13.92
322.25	-0.08
322.382	-1.08
322.514	5.92
322.646	5.92
322.778	27.92
322.91	6.92
323.042	9.92
323.174	-2.08
323.306	-7.08
323.438	-17.08
323.57	-14.08
323.702	0.92
323.834	-18.08
323.966	-21.08
324.097	-9.08
324.229	11.92
324.361	12.92
324.493	36.92
324.625	-3.08
324.757	15.92
324.889	6.92
325.021	9.92
325.152	11.92
325.284	4.92
325.416	-7.08
325.548	18.92
325.68	1.92
325.811	30.92
325.943	16.92
326.075	1.92
326.207	1.92
326.339	3.92
326.47	2.92
326.602	5.92
326.734	11.92
326.866	9.92
326.997	-5.08
327.129	-15.08
327.261	-23.08
327.392	8.92
327.524	-3.08
327.656	-0.08
327.787	4.92
327.919	18.92
328.051	0.92
328.182	10.92
328.314	39.92
328.446	8.92
328.577	18.92
328.709	27.92
328.841	-12.08
328.972	-3.08
329.104	-14.08
329.235	4.92
329.367	4.92
329.499	0.92
329.63	11.92
329.762	10.92
329.893	28.92
330.025	-0.08
330.156	-9.08
330.288	0.92
330.419	19.92
330.551	12.92
330.683	4.92
330.814	4.92
330.946	9.92
331.077	1.92
331.208	-4.08
331.34	-5.08
331.471	-4.08
331.603	14.92
331.734	-0.08
331.866	7.92
331.997	13.92
332.129	14.92
332.26	6.92
332.392	28.92
332.523	12.92
332.654	-28.08
332.786	-11.08
332.917	-9.08
333.048	18.92
333.18	25.92
333.311	5.92
333.443	4.92
333.574	4.92
333.705	25.92
333.837	5.92
333.968	-3.08
334.099	17.92
334.231	13.92
334.362	-3.08
334.493	12.92
334.624	15.92
334.756	8.92
334.887	10.92
335.018	16.92
335.15	11.92
335.281	-1.08
335.412	13.92
335.543	29.92
335.675	2.92
335.806	11.92
335.937	-1.08
336.068	13.92
336.199	29.92
336.331	-3.08
336.462	-3.08
336.593	19.92
336.724	-7.08
336.855	2.92
336.986	19.92
337.118	9.92
337.249	16.92
337.38	0.92
337.511	15.92
337.642	-1.08
337.773	4.92
337.904	0.92
338.035	12.92
338.166	4.92
338.298	-4.08
338.429	-5.08
338.56	11.92
338.691	23.92
338.822	10.92
338.953	8.92
339.084	18.92
339.215	12.92
339.346	-2.08
339.477	-1.08
339.608	-4.08
339.739	-5.08
339.87	-4.08
340.001	11.92
340.132	21.92
340.263	8.92
340.394	17.92
340.525	2.92
340.656	5.92
340.787	-1.08
340.918	32.92
341.049	12.92
341.179	1.92
341.31	1.92
341.441	2.92
341.572	21.92
341.703	-0.08
341.834	9.92
341.965	17.92
342.096	10.92
342.227	-5.08
342.357	3.92
342.488	-0.08
342.619	5.92
342.75	1.92
342.881	2.92
343.012	20.92
343.142	25.92
343.273	9.92
343.404	14.92
343.535	37.92
343.666	21.92
343.796	-4.08
343.927	13.92
344.058	12.92
344.189	18.92
344.319	8.92
344.45	12.92
344.581	9.92
344.712	-15.08
344.842	-8.08
344.973	-8.08
345.104	13.92
345.234	3.92
345.365	-4.08
345.496	14.92
345.626	26.92
345.757	6.92
345.888	1.92
346.018	14.92
346.149	7.92
346.28	28.92
346.41	-4.08
346.541	7.92
346.672	11.92
346.802	10.92
346.933	17.92
347.063	8.92
347.194	1.92
347.325	4.92
347.455	23.92
347.586	13.92
347.716	-6.08
347.847	6.92
347.977	17.92
348.108	15.92
348.238	6.92
348.369	4.92
348.499	16.92
348.63	-2.08
348.76	1.92
348.891	7.92
349.021	21.92
349.152	8.92
349.282	5.92
349.413	-1.08
349.543	24.92
349.674	20.92
349.804	9.92
349.935	5.92
350.065	-18.08
350.196	-14.08
350.326	-2.08
350.456	-13.08
350.587	13.92
350.717	23.92
350.848	9.92
350.978	10.92
351.108	-3.08
351.239	12.92
351.369	1.92
351.499	-0.08
351.63	1.92
351.76	6.92
351.89	11.92
352.021	19.92
352.151	-9.08
352.281	-0.08
352.412	4.92
352.542	3.92
352.672	-16.08
352.803	1.92
352.933	4.92
353.063	10.92
353.193	14.92
353.324	0.92
353.454	26.92
353.584	21.92
353.714	9.92
353.845	4.92
353.975	4.92
354.105	1.92
354.235	8.92
354.365	19.92
354.496	5.92
354.626	14.92
354.756	8.92
354.886	2.92
355.016	2.92
355.146	-4.08
355.277	19.92
355.407	7.92
355.537	-6.08
355.667	19.92
355.797	1.92
355.927	6.92
356.057	30.92
356.187	-6.08
356.318	10.92
356.448	-6.08
356.578	16.92
356.708	25.92
356.838	9.92
356.968	11.92
357.098	3.92
357.228	15.92
357.358	-3.08
357.488	-1.08
357.618	42.92
357.748	9.92
357.878	9.92
358.008	22.92
358.138	6.92
358.268	-0.08
358.398	29.92
358.528	-22.08
358.658	11.92
358.788	-0.08
358.918	25.92
359.048	19.92
359.178	32.92
359.308	26.92
359.438	16.92
359.568	13.92
359.698	24.92
359.827	4.92
359.957	7.92
360.087	25.92
360.217	1.92
360.347	4.92
360.477	5.92
360.607	-2.08
360.737	13.92
360.866	5.92
360.996	-9.08
361.126	-13.08
361.256	25.92
361.386	17.92
361.516	25.92
361.645	-5.08
361.775	1.92
361.905	-4.08
362.035	16.92
362.165	10.92
362.294	4.92
362.424	32.92
362.554	20.92
362.684	-0.08
362.813	12.92
362.943	13.92
363.073	3.92
363.203	-6.08
363.332	8.92
363.462	-9.08
363.592	-8.08
363.721	14.92
363.851	-4.08
363.981	20.92
364.111	10.92
364.24	6.92
364.37	16.92
364.5	19.92
364.629	-7.08
364.759	-1.08
364.888	2.92
365.018	2.92
365.148	19.92
365.277	1.92
365.407	1.92
365.537	16.92
365.666	6.92
365.796	9.92
365.925	4.92
366.055	12.92
366.184	-1.08
366.314	14.92
366.444	19.92
366.573	7.92
366.703	-5.08
366.832	21.92
366.962	13.92
367.091	-3.08
367.221	8.92
367.35	5.92
367.48	45.92
367.609	22.92
367.739	-9.08
367.868	-1.08
367.998	27.92
368.127	35.92
368.257	19.92
368.386	20.92
368.516	7.92
368.645	2.92
368.775	-11.08
368.904	15.92
369.033	-5.08
369.163	-6.08
369.292	16.92
369.422	36.92
369.551	15.92
369.68	3.92
369.81	4.92
369.939	0.92
370.069	29.92
370.198	7.92
370.327	-18.08
370.457	-6.08
370.586	9.92
370.715	-6.08
370.845	-1.08
370.974	3.92
371.103	20.92
371.233	18.92
371.362	7.92
371.491	4.92
371.621	9.92
371.75	5.92
371.879	1.92
372.008	19.92
372.138	14.92
372.267	23.92
372.396	-7.08
372.525	19.92
372.655	18.92
372.784	25.92
372.913	-4.08
373.042	26.92
373.172	35.92
373.301	-2.08
373.43	-10.08
373.559	-4.08
373.688	16.92
373.818	26.92
373.947	9.92
374.076	5.92
374.205	0.92
374.334	10.92
374.463	-19.08
374.593	9.92
374.722	10.92
374.851	14.92
374.98	4.92
375.109	24.92
375.238	8.92
375.367	31.92
375.496	-1.08
375.625	-12.08
375.755	25.92
375.884	24.92
376.013	12.92
376.142	3.92
376.271	7.92
376.4	9.92
376.529	17.92
376.658	13.92
376.787	3.92
376.916	16.92
377.045	5.92
377.174	10.92
377.303	17.92
377.432	30.92
377.561	4.92
377.69	10.92
377.819	23.92
377.948	-1.08
378.077	-6.08
378.206	-2.08
378.335	-2.08
378.464	-2.08
378.593	-1.08
378.722	-8.08
378.851	-4.08
378.98	15.92
379.108	4.92
379.237	7.92
379.366	12.92
379.495	21.92
379.624	6.92
379.753	6.92
379.882	16.92
380.011	-12.08
380.14	-6.08
380.268	24.92
380.397	13.92
380.526	11.92
380.655	4.92
380.784	-5.08
380.913	10.92
381.041	-8.08
381.17	-2.08
381.299	7.92
381.428	7.92
381.557	-2.08
381.685	-2.08
381.814	0.92
381.943	-1.08
382.072	5.92
382.2	-0.08
382.329	2.92
382.458	-5.08
382.587	24.92
382.715	20.92
382.844	16.92
382.973	-11.08
383.102	-2.08
383.23	-11.08
383.359	-4.08
383.488	26.92
383.616	4.92
383.745	7.92
383.874	20.92
384.003	-5.08
384.131	-0.08
384.26	-16.08
384.389	15.92
384.517	-12.08
384.646	8.92
384.774	-4.08
384.903	8.92
385.032	20.92
385.16	17.92
385.289	-1.08
385.418	-16.08
385.546	16.92
385.675	18.92
385.803	6.92
385.932	-2.08
386.06	-17.08
386.189	0.92
386.318	20.92
386.446	-5.08
386.575	10.92
386.703	9.92
386.832	-0.08
386.96	1.92
387.089	20.92
387.217	7.92
387.346	-16.08
387.474	7.92
387.603	16.92
387.731	12.92
387.86	6.92
387.988	-10.08
388.117	9.92
388.245	6.92
388.374	-4.08
388.502	7.92
388.631	12.92
388.759	6.92
388.888	13.92
389.016	-6.08
389.144	-10.08
389.273	9.92
389.401	18.92
389.53	-22.08
389.658	7.92
389.786	1.92
389.915	-11.08
390.043	14.92
390.172	12.92
390.3	19.92
390.428	9.92
390.557	3.92
390.685	7.92
390.813	9.92
390.942	25.92
391.07	14.92
391.198	-6.08
391.327	-4.08
391.455	-9.08
391.583	5.92
391.712	-2.08
391.84	-0.08
391.968	-9.08
392.096	-0.08
392.225	1.92
392.353	-11.08
392.481	13.92
392.609	26.92
392.738	6.92
392.866	-2.08
392.994	-2.08
393.122	18.92
393.251	11.92
393.379	-2.08
393.507	-15.08
393.635	-4.08
393.764	10.92
393.892	27.92
394.02	10.92
394.148	11.92
394.276	10.92
394.404	18.92
394.533	-2.08
394.661	15.92
394.789	22.92
394.917	17.92
395.045	-0.08
395.173	-10.08
395.302	-3.08
395.43	12.92
395.558	27.92
395.686	27.92
395.814	14.92
395.942	-4.08
396.07	7.92
396.198	12.92
396.326	21.92
396.454	15.92
396.582	12.92
396.711	10.92
396.839	29.92
396.967	24.92
397.095	9.92
397.223	15.92
397.351	19.92
397.479	24.92
397.607	15.92
397.735	4.92
397.863	19.92
397.991	10.92
398.119	8.92
398.247	3.92
398.375	8.92
398.503	7.92
398.631	-1.08
398.759	0.92
398.887	9.92
399.015	-2.08
399.143	12.92
399.271	-5.08
399.399	2.92
399.526	18.92
399.654	8.92
399.782	-10.08
399.91	26.92
400.038	30.92
400.166	12.92
400.294	14.92
400.422	8.92
400.55	0.92
400.678	-5.08
400.805	8.92
400.933	15.92
401.061	20.92
401.189	21.92
401.317	25.92
401.445	24.92
401.573	9.92
401.7	-2.08
401.828	-8.08
401.956	-5.08
402.084	20.92
402.212	8.92
402.34	20.92
402.467	15.92
402.595	11.92
402.723	4.92
402.851	22.92
402.978	11.92
403.106	17.92
403.234	-7.08
403.362	35.92
403.489	10.92
403.617	14.92
403.745	8.92
403.873	2.92
404	26.92
404.128	5.92
404.256	25.92
404.384	19.92
404.511	18.92
404.639	-2.08
404.767	9.92
404.894	12.92
405.022	14.92
405.15	15.92
405.277	4.92
405.405	11.92
405.533	-2.08
405.66	7.92
405.788	7.92
405.916	1.92
406.043	-17.08
406.171	-1.08
406.299	17.92
406.426	9.92
406.554	45.92
406.681	42.92
406.809	13.92
406.937	26.92
407.064	6.92
407.192	30.92
407.319	5.92
407.447	22.92
407.574	22.92
407.702	28.92
407.83	12.92
407.957	-3.08
408.085	18.92
408.212	17.92
408.34	19.92
408.467	-0.08
408.595	11.92
408.722	18.92
408.85	23.92
408.977	-5.08
409.105	5.92
409.232	4.92
409.36	3.92
409.487	9.92
409.615	12.92
409.742	27.92
409.87	27.92
409.997	33.92
410.125	29.92
410.252	47.92
410.379	71.92
410.507	25.92
410.634	21.92
410.762	-0.08
410.889	12.92
411.017	13.92
411.144	14.92
411.271	13.92
411.399	14.92
411.526	2.92
411.653	8.92
411.781	35.92
411.908	16.92
412.036	-8.08
412.163	25.92
412.29	26.92
412.418	11.92
412.545	26.92
412.672	16.92
412.8	4.92
412.927	5.92
413.054	28.92
413.182	14.92
413.309	6.92
413.436	3.92
413.564	15.92
413.691	1.92
413.818	20.92
413.945	1.92
414.073	1.92
414.2	4.92
414.327	9.92
414.454	17.92
414.582	11.92
414.709	-7.08
414.836	2.92
414.963	-5.08
415.091	6.92
415.218	-3.08
415.345	4.92
415.472	-2.08
415.6	0.92
415.727	20.92
415.854	10.92
415.981	10.92
416.108	-0.08
416.236	14.92
416.363	22.92
416.49	12.92
416.617	-1.08
416.744	25.92
416.871	23.92
416.998	7.92
417.126	6.92
417.253	12.92
417.38	5.92
417.507	3.92
417.634	15.92
417.761	21.92
417.888	21.92
418.015	8.92
418.143	25.92
418.27	18.92
418.397	7.92
418.524	13.92
418.651	-6.08
418.778	19.92
418.905	26.92
419.032	14.92
419.159	-1.08
419.286	24.92
419.413	16.92
419.54	33.92
419.667	6.92
419.794	-7.08
419.921	-10.08
420.048	17.92
420.175	8.92
420.302	3.92
420.429	3.92
420.556	12.92
420.683	-4.08
420.81	-7.08
420.937	30.92
