Data from LowRes_H2_15_26_11_07_2024_HR4C61881__78__15-28-21-436.txt Node

Date: Thu Nov 07 15:28:21 EST 2024
User: crc00042
Spectrometer: HR4C6188
Trigger mode: 4
Integration Time (sec): 1.000000E-1
Scans to average: 1
Electric dark correction enabled: true
Nonlinearity correction enabled: false
Boxcar width: 0
XAxis mode: Wavelengths
Number of Pixels in Spectrum: 3648
>>>>>Begin Spectral Data<<<<<
245.66	-83.23
245.797	-83.23
245.934	-83.23
246.071	-60.23
246.208	-5.23
246.344	-8.23
246.481	-6.23
246.618	-5.23
246.755	17.77
246.892	2.77
247.029	-6.23
247.165	-16.23
247.302	17.77
247.439	-1.23
247.576	-0.23
247.713	-12.23
247.849	23.77
247.986	-6.23
248.123	10.77
248.26	-22.23
248.396	12.77
248.533	-5.23
248.67	-7.23
248.806	0.77
248.943	-12.23
249.08	-9.23
249.216	20.77
249.353	-6.23
249.49	-2.23
249.626	-3.23
249.763	1.77
249.9	-20.23
250.036	13.77
250.173	-14.23
250.309	-6.23
250.446	-8.23
250.582	4.77
250.719	-13.23
250.856	-8.23
250.992	-16.23
251.129	-5.23
251.265	-14.23
251.402	11.77
251.538	-4.23
251.675	-5.23
251.811	13.77
251.948	2.77
252.084	2.77
252.221	1.77
252.357	3.77
252.493	31.77
252.63	-1.23
252.766	21.77
252.903	10.77
253.039	14.77
253.175	-1.23
253.312	6.77
253.448	-1.23
253.585	-12.23
253.721	1.77
253.857	2.77
253.994	15.77
254.13	-5.23
254.266	-16.23
254.403	-8.23
254.539	-1.23
254.675	-7.23
254.811	20.77
254.948	-6.23
255.084	-6.23
255.22	-0.23
255.356	13.77
255.493	-0.23
255.629	9.77
255.765	7.77
255.901	-1.23
256.037	-2.23
256.174	-5.23
256.31	1.77
256.446	-8.23
256.582	4.77
256.718	28.77
256.854	8.77
256.991	12.77
257.127	27.77
257.263	-24.23
257.399	-2.23
257.535	-2.23
257.671	-6.23
257.807	-12.23
257.943	-9.23
258.079	-6.23
258.215	-6.23
258.351	16.77
258.487	-8.23
258.623	9.77
258.759	-32.23
258.895	-9.23
259.031	-2.23
259.167	-5.23
259.303	21.77
259.439	-10.23
259.575	-9.23
259.711	-1.23
259.847	-8.23
259.983	-9.23
260.119	-16.23
260.255	-15.23
260.391	3.77
260.527	3.77
260.663	12.77
260.799	8.77
260.934	3.77
261.07	1.77
261.206	-4.23
261.342	-13.23
261.478	2.77
261.614	9.77
261.749	0.77
261.885	-7.23
262.021	4.77
262.157	5.77
262.293	-9.23
262.428	-13.23
262.564	0.77
262.7	-7.23
262.836	7.77
262.971	12.77
263.107	-3.23
263.243	6.77
263.378	-6.23
263.514	-22.23
263.65	14.77
263.785	-6.23
263.921	-7.23
264.057	-2.23
264.192	11.77
264.328	13.77
264.464	-19.23
264.599	-6.23
264.735	19.77
264.871	-23.23
265.006	1.77
265.142	-7.23
265.277	5.77
265.413	9.77
265.548	25.77
265.684	13.77
265.819	3.77
265.955	-11.23
266.091	-15.23
266.226	-31.23
266.362	-3.23
266.497	-8.23
266.633	3.77
266.768	3.77
266.903	-3.23
267.039	15.77
267.174	14.77
267.31	-11.23
267.445	-2.23
267.581	-11.23
267.716	13.77
267.851	10.77
267.987	29.77
268.122	27.77
268.258	-4.23
268.393	-23.23
268.528	-2.23
268.664	2.77
268.799	-18.23
268.934	15.77
269.07	-11.23
269.205	-8.23
269.34	14.77
269.476	-3.23
269.611	-10.23
269.746	11.77
269.881	-1.23
270.017	0.77
270.152	1.77
270.287	-12.23
270.422	11.77
270.558	-18.23
270.693	8.77
270.828	-7.23
270.963	-1.23
271.098	-13.23
271.234	-5.23
271.369	19.77
271.504	1.77
271.639	7.77
271.774	2.77
271.909	4.77
272.045	-17.23
272.18	-14.23
272.315	6.77
272.45	-2.23
272.585	4.77
272.72	-6.23
272.855	-6.23
272.99	7.77
273.125	-25.23
273.26	-32.23
273.395	-12.23
273.53	-9.23
273.665	10.77
273.8	-24.23
273.935	-8.23
274.07	-1.23
274.205	5.77
274.34	-4.23
274.475	14.77
274.61	6.77
274.745	-8.23
274.88	9.77
275.015	-25.23
275.15	-15.23
275.285	0.77
275.42	-6.23
275.555	14.77
275.69	4.77
275.825	-4.23
275.959	-3.23
276.094	-17.23
276.229	-10.23
276.364	4.77
276.499	5.77
276.634	7.77
276.768	-13.23
276.903	-3.23
277.038	0.77
277.173	-5.23
277.308	-16.23
277.442	-16.23
277.577	-10.23
277.712	-1.23
277.847	-3.23
277.981	-4.23
278.116	-26.23
278.251	-1.23
278.386	5.77
278.52	15.77
278.655	2.77
278.79	12.77
278.924	6.77
279.059	4.77
279.194	-24.23
279.328	14.77
279.463	1.77
279.598	19.77
279.732	0.77
279.867	-13.23
280.001	-0.23
280.136	15.77
280.271	0.77
280.405	9.77
280.54	8.77
280.674	-2.23
280.809	3.77
280.943	-2.23
281.078	-0.23
281.213	8.77
281.347	-7.23
281.482	1.77
281.616	10.77
281.751	6.77
281.885	-28.23
282.02	1.77
282.154	7.77
282.288	-4.23
282.423	-9.23
282.557	-44.23
282.692	-15.23
282.826	-10.23
282.961	1.77
283.095	-11.23
283.229	-7.23
283.364	-18.23
283.498	-8.23
283.633	-1.23
283.767	-17.23
283.901	6.77
284.036	-6.23
284.17	-14.23
284.304	-15.23
284.439	-3.23
284.573	-8.23
284.707	-1.23
284.842	4.77
284.976	-2.23
285.11	-15.23
285.244	-13.23
285.379	41.77
285.513	-20.23
285.647	-7.23
285.781	-15.23
285.916	-13.23
286.05	-1.23
286.184	41.77
286.318	13.77
286.453	-14.23
286.587	-15.23
286.721	-22.23
286.855	-4.23
286.989	6.77
287.123	-11.23
287.258	-20.23
287.392	0.77
287.526	-7.23
287.66	-15.23
287.794	-18.23
287.928	7.77
288.062	-5.23
288.196	-3.23
288.33	-14.23
288.464	22.77
288.598	17.77
288.733	-13.23
288.867	11.77
289.001	-3.23
289.135	5.77
289.269	-7.23
289.403	-14.23
289.537	-3.23
289.671	5.77
289.805	-13.23
289.939	-1.23
290.073	-1.23
290.207	22.77
290.34	6.77
290.474	3.77
290.608	-9.23
290.742	0.77
290.876	-26.23
291.01	-15.23
291.144	35.77
291.278	18.77
291.412	1.77
291.546	-3.23
291.679	-6.23
291.813	-9.23
291.947	-11.23
292.081	-2.23
292.215	5.77
292.349	8.77
292.482	-1.23
292.616	-21.23
292.75	-26.23
292.884	-27.23
293.018	-5.23
293.151	-18.23
293.285	3.77
293.419	-13.23
293.553	-5.23
293.686	-18.23
293.82	-16.23
293.954	27.77
294.088	20.77
294.221	-21.23
294.355	-11.23
294.489	-12.23
294.622	-13.23
294.756	-1.23
294.89	10.77
295.023	6.77
295.157	4.77
295.291	-12.23
295.424	16.77
295.558	-8.23
295.691	-13.23
295.825	-11.23
295.959	-5.23
296.092	-2.23
296.226	0.77
296.359	12.77
296.493	6.77
296.627	4.77
296.76	-4.23
296.894	4.77
297.027	13.77
297.161	6.77
297.294	-21.23
297.428	-8.23
297.561	13.77
297.695	4.77
297.828	7.77
297.962	14.77
298.095	9.77
298.229	2.77
298.362	-3.23
298.495	-18.23
298.629	-14.23
298.762	-18.23
298.896	3.77
299.029	-13.23
299.162	-7.23
299.296	0.77
299.429	-7.23
299.563	-9.23
299.696	1.77
299.829	-1.23
299.963	-0.23
300.096	4.77
300.229	-1.23
300.363	-9.23
300.496	-9.23
300.629	-33.23
300.763	-15.23
300.896	-7.23
301.029	4.77
301.162	-3.23
301.296	-22.23
301.429	2.77
301.562	-3.23
301.695	2.77
301.829	-0.23
301.962	15.77
302.095	-3.23
302.228	-18.23
302.362	5.77
302.495	-4.23
302.628	2.77
302.761	-8.23
302.894	-5.23
303.027	1.77
303.161	-8.23
303.294	-8.23
303.427	1.77
303.56	5.77
303.693	-3.23
303.826	14.77
303.959	7.77
304.092	2.77
304.225	1.77
304.359	19.77
304.492	12.77
304.625	10.77
304.758	-4.23
304.891	-3.23
305.024	-3.23
305.157	-13.23
305.29	-14.23
305.423	0.77
305.556	5.77
305.689	23.77
305.822	6.77
305.955	2.77
306.088	-1.23
306.221	-5.23
306.354	-22.23
306.487	-18.23
306.62	-41.23
306.752	-25.23
306.885	10.77
307.018	1.77
307.151	4.77
307.284	9.77
307.417	-13.23
307.55	7.77
307.683	3.77
307.816	15.77
307.948	9.77
308.081	6.77
308.214	9.77
308.347	15.77
308.48	-0.23
308.613	-8.23
308.745	-3.23
308.878	-12.23
309.011	-10.23
309.144	17.77
309.277	-10.23
309.409	4.77
309.542	-11.23
309.675	21.77
309.808	3.77
309.94	0.77
310.073	-31.23
310.206	-2.23
310.339	2.77
310.471	-14.23
310.604	20.77
310.737	-5.23
310.869	0.77
311.002	5.77
311.135	-2.23
311.267	-11.23
311.4	-10.23
311.533	17.77
311.665	-16.23
311.798	-5.23
311.93	0.77
312.063	-7.23
312.196	1.77
312.328	3.77
312.461	0.77
312.593	3.77
312.726	2.77
312.859	-0.23
312.991	-3.23
313.124	-27.23
313.256	-6.23
313.389	10.77
313.521	-11.23
313.654	-21.23
313.786	-11.23
313.919	-5.23
314.051	5.77
314.184	18.77
314.316	1.77
314.449	2.77
314.581	2.77
314.714	1.77
314.846	-0.23
314.978	-9.23
315.111	-19.23
315.243	-9.23
315.376	5.77
315.508	7.77
315.641	-8.23
315.773	20.77
315.905	6.77
316.038	-6.23
316.17	-12.23
316.302	6.77
316.435	11.77
316.567	-25.23
316.699	10.77
316.832	-11.23
316.964	-9.23
317.096	-2.23
317.229	-3.23
317.361	-2.23
317.493	-8.23
317.625	-1.23
317.758	-2.23
317.89	7.77
318.022	6.77
318.155	-13.23
318.287	-2.23
318.419	-23.23
318.551	-11.23
318.683	-1.23
318.816	-27.23
318.948	-4.23
319.08	-6.23
319.212	-3.23
319.344	4.77
319.477	-8.23
319.609	-11.23
319.741	-12.23
319.873	-25.23
320.005	5.77
320.137	0.77
320.269	2.77
320.401	8.77
320.534	-17.23
320.666	-17.23
320.798	-3.23
320.93	-11.23
321.062	0.77
321.194	-3.23
321.326	11.77
321.458	6.77
321.59	8.77
321.722	9.77
321.854	8.77
321.986	-12.23
322.118	-6.23
322.25	-4.23
322.382	6.77
322.514	-6.23
322.646	-14.23
322.778	13.77
322.91	1.77
323.042	-1.23
323.174	-7.23
323.306	-6.23
323.438	-30.23
323.57	-7.23
323.702	-5.23
323.834	5.77
323.966	-23.23
324.097	-6.23
324.229	-6.23
324.361	8.77
324.493	5.77
324.625	-17.23
324.757	6.77
324.889	-10.23
325.021	-3.23
325.152	6.77
325.284	21.77
325.416	4.77
325.548	-6.23
325.68	1.77
325.811	20.77
325.943	1.77
326.075	-19.23
326.207	0.77
326.339	22.77
326.47	10.77
326.602	6.77
326.734	8.77
326.866	14.77
326.997	-19.23
327.129	-6.23
327.261	-30.23
327.392	-5.23
327.524	1.77
327.656	-2.23
327.787	12.77
327.919	4.77
328.051	-3.23
328.182	26.77
328.314	17.77
328.446	-7.23
328.577	20.77
328.709	17.77
328.841	7.77
328.972	-10.23
329.104	-3.23
329.235	10.77
329.367	-0.23
329.499	-6.23
329.63	8.77
329.762	4.77
329.893	9.77
330.025	-8.23
330.156	-20.23
330.288	2.77
330.419	22.77
330.551	10.77
330.683	15.77
330.814	-14.23
330.946	6.77
331.077	-24.23
331.208	-5.23
331.34	4.77
331.471	-21.23
331.603	-6.23
331.734	-17.23
331.866	-3.23
331.997	17.77
332.129	5.77
332.26	8.77
332.392	11.77
332.523	-15.23
332.654	-7.23
332.786	-1.23
332.917	-1.23
333.048	17.77
333.18	19.77
333.311	-17.23
333.443	-2.23
333.574	-8.23
333.705	20.77
333.837	-1.23
333.968	2.77
334.099	2.77
334.231	41.77
334.362	-1.23
334.493	1.77
334.624	19.77
334.756	3.77
334.887	4.77
335.018	26.77
335.15	19.77
335.281	3.77
335.412	11.77
335.543	2.77
335.675	-3.23
335.806	6.77
335.937	-6.23
336.068	31.77
336.199	30.77
336.331	-3.23
336.462	-4.23
336.593	8.77
336.724	-16.23
336.855	-7.23
336.986	1.77
337.118	7.77
337.249	28.77
337.38	2.77
337.511	12.77
337.642	24.77
337.773	1.77
337.904	7.77
338.035	0.77
338.166	-13.23
338.298	20.77
338.429	-2.23
338.56	9.77
338.691	13.77
338.822	-2.23
338.953	0.77
339.084	3.77
339.215	9.77
339.346	17.77
339.477	-0.23
339.608	7.77
339.739	-0.23
339.87	-9.23
340.001	-6.23
340.132	1.77
340.263	9.77
340.394	13.77
340.525	13.77
340.656	-7.23
340.787	-6.23
340.918	25.77
341.049	16.77
341.179	-3.23
341.31	7.77
341.441	0.77
341.572	19.77
341.703	11.77
341.834	1.77
341.965	12.77
342.096	4.77
342.227	2.77
342.357	2.77
342.488	10.77
342.619	1.77
342.75	-9.23
342.881	-20.23
343.012	1.77
343.142	22.77
343.273	-18.23
343.404	4.77
343.535	26.77
343.666	8.77
343.796	19.77
343.927	6.77
344.058	-3.23
344.189	10.77
344.319	15.77
344.45	2.77
344.581	-4.23
344.712	6.77
344.842	4.77
344.973	-4.23
345.104	-1.23
345.234	-0.23
345.365	-13.23
345.496	2.77
345.626	9.77
345.757	9.77
345.888	-37.23
346.018	-4.23
346.149	-5.23
346.28	26.77
346.41	21.77
346.541	7.77
346.672	6.77
346.802	4.77
346.933	9.77
347.063	-0.23
347.194	-11.23
347.325	16.77
347.455	26.77
347.586	5.77
347.716	-20.23
347.847	9.77
347.977	15.77
348.108	17.77
348.238	6.77
348.369	-3.23
348.499	11.77
348.63	-2.23
348.76	-4.23
348.891	8.77
349.021	17.77
349.152	3.77
349.282	2.77
349.413	-6.23
349.543	16.77
349.674	3.77
349.804	17.77
349.935	-19.23
350.065	-11.23
350.196	-9.23
350.326	9.77
350.456	-0.23
350.587	11.77
350.717	16.77
350.848	7.77
350.978	8.77
351.108	-6.23
351.239	24.77
351.369	-0.23
351.499	11.77
351.63	3.77
351.76	-14.23
351.89	-6.23
352.021	-4.23
352.151	-11.23
352.281	1.77
352.412	7.77
352.542	5.77
352.672	-8.23
352.803	15.77
352.933	-5.23
353.063	-15.23
353.193	-5.23
353.324	-12.23
353.454	9.77
353.584	15.77
353.714	-1.23
353.845	-3.23
353.975	5.77
354.105	2.77
354.235	9.77
354.365	1.77
354.496	-14.23
354.626	4.77
354.756	17.77
354.886	4.77
355.016	3.77
355.146	-4.23
355.277	-8.23
355.407	1.77
355.537	5.77
355.667	7.77
355.797	-1.23
355.927	-14.23
356.057	23.77
356.187	-1.23
356.318	-2.23
356.448	-9.23
356.578	-1.23
356.708	19.77
356.838	7.77
356.968	-9.23
357.098	12.77
357.228	5.77
357.358	-21.23
357.488	-12.23
357.618	23.77
357.748	21.77
357.878	-5.23
358.008	11.77
358.138	-6.23
358.268	5.77
358.398	10.77
358.528	-5.23
358.658	-2.23
358.788	-6.23
358.918	2.77
359.048	9.77
359.178	30.77
359.308	0.77
359.438	22.77
359.568	23.77
359.698	7.77
359.827	-17.23
359.957	-14.23
360.087	4.77
360.217	-19.23
360.347	6.77
360.477	13.77
360.607	1.77
360.737	-2.23
360.866	-1.23
360.996	-13.23
361.126	-24.23
361.256	22.77
361.386	14.77
361.516	5.77
361.645	-21.23
361.775	11.77
361.905	-11.23
362.035	5.77
362.165	5.77
362.294	-14.23
362.424	24.77
362.554	14.77
362.684	4.77
362.813	-2.23
362.943	1.77
363.073	-0.23
363.203	1.77
363.332	8.77
363.462	-9.23
363.592	11.77
363.721	4.77
363.851	-1.23
363.981	23.77
364.111	-1.23
364.24	-6.23
364.37	2.77
364.5	22.77
364.629	6.77
364.759	-15.23
364.888	-6.23
365.018	16.77
365.148	-11.23
365.277	7.77
365.407	8.77
365.537	6.77
365.666	14.77
365.796	0.77
365.925	-10.23
366.055	26.77
366.184	16.77
366.314	14.77
366.444	11.77
366.573	1.77
366.703	5.77
366.832	21.77
366.962	7.77
367.091	24.77
367.221	20.77
367.35	19.77
367.48	29.77
367.609	13.77
367.739	2.77
367.868	-5.23
367.998	-3.23
368.127	11.77
368.257	-5.23
368.386	7.77
368.516	11.77
368.645	23.77
368.775	2.77
368.904	-4.23
369.033	2.77
369.163	-3.23
369.292	12.77
369.422	21.77
369.551	11.77
369.68	-1.23
369.81	20.77
369.939	15.77
370.069	17.77
370.198	2.77
370.327	-18.23
370.457	-2.23
370.586	-13.23
370.715	0.77
370.845	-22.23
370.974	8.77
371.103	16.77
371.233	19.77
371.362	-8.23
371.491	-12.23
371.621	17.77
371.75	1.77
371.879	-28.23
372.008	0.77
372.138	-14.23
372.267	4.77
372.396	7.77
372.525	5.77
372.655	-10.23
372.784	-16.23
372.913	-0.23
373.042	-0.23
373.172	16.77
373.301	-24.23
373.43	-7.23
373.559	4.77
373.688	8.77
373.818	18.77
373.947	10.77
374.076	1.77
374.205	15.77
374.334	-6.23
374.463	-2.23
374.593	18.77
374.722	15.77
374.851	16.77
374.98	-4.23
375.109	-10.23
375.238	10.77
375.367	12.77
375.496	-26.23
375.625	-11.23
375.755	4.77
375.884	19.77
376.013	15.77
376.142	-23.23
376.271	-16.23
376.4	0.77
376.529	-3.23
376.658	-0.23
376.787	-1.23
376.916	3.77
377.045	-2.23
377.174	5.77
377.303	-5.23
377.432	7.77
377.561	6.77
377.69	3.77
377.819	5.77
377.948	-10.23
378.077	-7.23
378.206	-15.23
378.335	4.77
378.464	0.77
378.593	19.77
378.722	0.77
378.851	-2.23
378.98	25.77
379.108	-6.23
379.237	-3.23
379.366	9.77
379.495	18.77
379.624	19.77
379.753	20.77
379.882	-11.23
380.011	0.77
380.14	3.77
380.268	-5.23
380.397	-11.23
380.526	17.77
380.655	-0.23
380.784	-24.23
380.913	-7.23
381.041	6.77
381.17	-1.23
381.299	-3.23
381.428	16.77
381.557	12.77
381.685	-3.23
381.814	8.77
381.943	-3.23
382.072	-2.23
382.2	-12.23
382.329	9.77
382.458	-9.23
382.587	10.77
382.715	22.77
382.844	-1.23
382.973	0.77
383.102	-20.23
383.23	-5.23
383.359	-15.23
383.488	-4.23
383.616	-10.23
383.745	-12.23
383.874	-5.23
384.003	0.77
384.131	-5.23
384.26	-3.23
384.389	0.77
384.517	-7.23
384.646	-6.23
384.774	-6.23
384.903	24.77
385.032	16.77
385.16	6.77
385.289	8.77
385.418	-6.23
385.546	2.77
385.675	-5.23
385.803	-5.23
385.932	-4.23
386.06	-9.23
386.189	3.77
386.318	4.77
386.446	-6.23
386.575	13.77
386.703	11.77
386.832	-5.23
386.96	-29.23
387.089	7.77
387.217	3.77
387.346	-1.23
387.474	0.77
387.603	-5.23
387.731	-1.23
387.86	9.77
387.988	2.77
388.117	3.77
388.245	20.77
388.374	6.77
388.502	19.77
388.631	-2.23
388.759	-17.23
388.888	3.77
389.016	8.77
389.144	-3.23
389.273	-6.23
389.401	-14.23
389.53	-8.23
389.658	22.77
389.786	-10.23
389.915	2.77
390.043	1.77
390.172	1.77
390.3	19.77
390.428	21.77
390.557	-15.23
390.685	2.77
390.813	9.77
390.942	9.77
391.07	9.77
391.198	-11.23
391.327	-1.23
391.455	-16.23
391.583	4.77
391.712	12.77
391.84	-3.23
391.968	-6.23
392.096	-14.23
392.225	-7.23
392.353	12.77
392.481	7.77
392.609	34.77
392.738	18.77
392.866	31.77
392.994	-3.23
393.122	18.77
393.251	12.77
393.379	-8.23
393.507	-13.23
393.635	-6.23
393.764	-2.23
393.892	13.77
394.02	-10.23
394.148	2.77
394.276	6.77
394.404	43.77
394.533	-3.23
394.661	-2.23
394.789	18.77
394.917	32.77
395.045	0.77
395.173	6.77
395.302	-13.23
395.43	-1.23
395.558	5.77
395.686	7.77
395.814	7.77
395.942	-8.23
396.07	5.77
396.198	6.77
396.326	-3.23
396.454	21.77
396.582	9.77
396.711	8.77
396.839	2.77
396.967	15.77
397.095	-11.23
397.223	17.77
397.351	20.77
397.479	27.77
397.607	5.77
397.735	18.77
397.863	-0.23
397.991	13.77
398.119	-11.23
398.247	6.77
398.375	-10.23
398.503	-2.23
398.631	3.77
398.759	12.77
398.887	2.77
399.015	-10.23
399.143	9.77
399.271	13.77
399.399	20.77
399.526	1.77
399.654	3.77
399.782	-8.23
399.91	17.77
400.038	19.77
400.166	4.77
400.294	-0.23
400.422	7.77
400.55	10.77
400.678	19.77
400.805	7.77
400.933	-0.23
401.061	14.77
401.189	-3.23
401.317	2.77
401.445	25.77
401.573	20.77
401.7	-8.23
401.828	10.77
401.956	7.77
402.084	7.77
402.212	11.77
402.34	10.77
402.467	6.77
402.595	1.77
402.723	14.77
402.851	20.77
402.978	0.77
403.106	1.77
403.234	-13.23
403.362	17.77
403.489	25.77
403.617	23.77
403.745	25.77
403.873	5.77
404	16.77
404.128	-0.23
404.256	35.77
404.384	22.77
404.511	15.77
404.639	-13.23
404.767	-16.23
404.894	-2.23
405.022	8.77
405.15	1.77
405.277	-2.23
405.405	-2.23
405.533	9.77
405.66	-1.23
405.788	-23.23
405.916	-12.23
406.043	-5.23
406.171	-4.23
406.299	28.77
406.426	10.77
406.554	13.77
406.681	23.77
406.809	16.77
406.937	6.77
407.064	-3.23
407.192	2.77
407.319	5.77
407.447	7.77
407.574	23.77
407.702	8.77
407.83	-12.23
407.957	-13.23
408.085	-1.23
408.212	-12.23
408.34	2.77
408.467	2.77
408.595	12.77
408.722	31.77
408.85	7.77
408.977	-25.23
409.105	12.77
409.232	20.77
409.36	17.77
409.487	24.77
409.615	31.77
409.742	40.77
409.87	28.77
409.997	34.77
410.125	40.77
410.252	55.77
410.379	38.77
410.507	26.77
410.634	3.77
410.762	-6.23
410.889	12.77
411.017	1.77
411.144	18.77
411.271	5.77
411.399	21.77
411.526	3.77
411.653	17.77
411.781	12.77
411.908	18.77
412.036	7.77
412.163	22.77
412.29	12.77
412.418	21.77
412.545	15.77
412.672	8.77
412.8	17.77
412.927	2.77
413.054	16.77
413.182	5.77
413.309	16.77
413.436	8.77
413.564	9.77
413.691	19.77
413.818	13.77
413.945	-29.23
414.073	1.77
414.2	17.77
414.327	25.77
414.454	-0.23
414.582	4.77
414.709	-20.23
414.836	16.77
414.963	-0.23
415.091	8.77
415.218	-2.23
415.345	-8.23
415.472	-4.23
415.6	-17.23
415.727	-6.23
415.854	4.77
415.981	-9.23
416.108	10.77
416.236	-3.23
416.363	-6.23
416.49	-1.23
416.617	15.77
416.744	18.77
416.871	10.77
416.998	4.77
417.126	13.77
417.253	7.77
417.38	1.77
417.507	13.77
417.634	17.77
417.761	14.77
417.888	5.77
418.015	6.77
418.143	9.77
418.27	29.77
418.397	11.77
418.524	15.77
418.651	-6.23
418.778	-0.23
418.905	18.77
419.032	14.77
419.159	27.77
419.286	33.77
419.413	7.77
419.54	16.77
419.667	2.77
419.794	-24.23
