Data from LowRes_H2_15_26_11_07_2024_HR4C61881__6__15-28-14-237.txt Node

Date: Thu Nov 07 15:28:14 EST 2024
User: crc00042
Spectrometer: HR4C6188
Trigger mode: 4
Integration Time (sec): 1.000000E-1
Scans to average: 1
Electric dark correction enabled: true
Nonlinearity correction enabled: false
Boxcar width: 0
XAxis mode: Wavelengths
Number of Pixels in Spectrum: 3648
>>>>>Begin Spectral Data<<<<<
245.66	-78.85
245.797	-78.85
245.934	-78.85
246.071	-62.85
246.208	10.15
246.344	2.15
246.481	-20.85
246.618	-17.85
246.755	4.15
246.892	-0.85
247.029	-3.85
247.165	-7.85
247.302	14.15
247.439	6.15
247.576	22.15
247.713	-2.85
247.849	27.15
247.986	-21.85
248.123	-1.85
248.26	6.15
248.396	21.15
248.533	-5.85
248.67	-3.85
248.806	5.15
248.943	-6.85
249.08	-14.85
249.216	2.15
249.353	-30.85
249.49	0.15
249.626	-2.85
249.763	-12.85
249.9	-1.85
250.036	1.15
250.173	12.15
250.309	-8.85
250.446	7.15
250.582	14.15
250.719	-2.85
250.856	-3.85
250.992	-5.85
251.129	3.15
251.265	-2.85
251.402	-2.85
251.538	-2.85
251.675	-6.85
251.811	18.15
251.948	8.15
252.084	-0.85
252.221	-19.85
252.357	-11.85
252.493	13.15
252.63	-17.85
252.766	29.15
252.903	11.15
253.039	-6.85
253.175	1.15
253.312	2.15
253.448	4.15
253.585	-19.85
253.721	13.15
253.857	0.15
253.994	6.15
254.13	20.15
254.266	-2.85
254.403	9.15
254.539	11.15
254.675	9.15
254.811	-4.85
254.948	9.15
255.084	-5.85
255.22	-8.85
255.356	7.15
255.493	8.15
255.629	-7.85
255.765	-3.85
255.901	1.15
256.037	9.15
256.174	23.15
256.31	-16.85
256.446	-16.85
256.582	-4.85
256.718	8.15
256.854	20.15
256.991	-3.85
257.127	25.15
257.263	-5.85
257.399	-8.85
257.535	-10.85
257.671	0.15
257.807	3.15
257.943	-6.85
258.079	-18.85
258.215	5.15
258.351	19.15
258.487	-4.85
258.623	25.15
258.759	3.15
258.895	-3.85
259.031	-14.85
259.167	-14.85
259.303	12.15
259.439	18.15
259.575	-2.85
259.711	28.15
259.847	15.15
259.983	1.15
260.119	3.15
260.255	5.15
260.391	15.15
260.527	14.15
260.663	26.15
260.799	12.15
260.934	-6.85
261.07	-5.85
261.206	-3.85
261.342	-15.85
261.478	16.15
261.614	3.15
261.749	3.15
261.885	-20.85
262.021	2.15
262.157	30.15
262.293	6.15
262.428	-9.85
262.564	10.15
262.7	19.15
262.836	7.15
262.971	8.15
263.107	15.15
263.243	19.15
263.378	-2.85
263.514	-22.85
263.65	-10.85
263.785	-10.85
263.921	1.15
264.057	1.15
264.192	1.15
264.328	25.15
264.464	-1.85
264.599	7.15
264.735	18.15
264.871	-14.85
265.006	13.15
265.142	20.15
265.277	24.15
265.413	22.15
265.548	12.15
265.684	15.15
265.819	7.15
265.955	-9.85
266.091	-12.85
266.226	-3.85
266.362	-5.85
266.497	17.15
266.633	-6.85
266.768	-4.85
266.903	15.15
267.039	13.15
267.174	-2.85
267.31	-1.85
267.445	-10.85
267.581	-4.85
267.716	2.15
267.851	1.15
267.987	9.15
268.122	15.15
268.258	1.15
268.393	-8.85
268.528	3.15
268.664	11.15
268.799	9.15
268.934	14.15
269.07	-2.85
269.205	-0.85
269.34	15.15
269.476	6.15
269.611	-6.85
269.746	20.15
269.881	-10.85
270.017	9.15
270.152	6.15
270.287	6.15
270.422	12.15
270.558	-5.85
270.693	14.15
270.828	-4.85
270.963	-5.85
271.098	-7.85
271.234	4.15
271.369	20.15
271.504	5.15
271.639	-18.85
271.774	-7.85
271.909	9.15
272.045	-22.85
272.18	-12.85
272.315	-5.85
272.45	10.15
272.585	-13.85
272.72	-5.85
272.855	0.15
272.99	14.15
273.125	4.15
273.26	-16.85
273.395	-9.85
273.53	-6.85
273.665	10.15
273.8	3.15
273.935	9.15
274.07	11.15
274.205	-8.85
274.34	-24.85
274.475	8.15
274.61	25.15
274.745	2.15
274.88	18.15
275.015	-12.85
275.15	-1.85
275.285	12.15
275.42	11.15
275.555	22.15
275.69	14.15
275.825	-3.85
275.959	12.15
276.094	-6.85
276.229	19.15
276.364	0.15
276.499	-2.85
276.634	2.15
276.768	-1.85
276.903	5.15
277.038	8.15
277.173	13.15
277.308	7.15
277.442	1.15
277.577	-2.85
277.712	-2.85
277.847	0.15
277.981	2.15
278.116	-13.85
278.251	3.15
278.386	-0.85
278.52	-1.85
278.655	0.15
278.79	10.15
278.924	3.15
279.059	18.15
279.194	0.15
279.328	37.15
279.463	9.15
279.598	19.15
279.732	16.15
279.867	11.15
280.001	11.15
280.136	-11.85
280.271	14.15
280.405	-2.85
280.54	-3.85
280.674	5.15
280.809	27.15
280.943	2.15
281.078	1.15
281.213	22.15
281.347	22.15
281.482	-2.85
281.616	10.15
281.751	5.15
281.885	5.15
282.02	16.15
282.154	18.15
282.288	-13.85
282.423	-8.85
282.557	-18.85
282.692	-4.85
282.826	9.15
282.961	9.15
283.095	7.15
283.229	-6.85
283.364	-14.85
283.498	-4.85
283.633	-1.85
283.767	20.15
283.901	4.15
284.036	-4.85
284.17	-8.85
284.304	-11.85
284.439	9.15
284.573	4.15
284.707	3.15
284.842	8.15
284.976	2.15
285.11	-3.85
285.244	13.15
285.379	52.15
285.513	2.15
285.647	11.15
285.781	10.15
285.916	25.15
286.05	1.15
286.184	17.15
286.318	10.15
286.453	6.15
286.587	-10.85
286.721	6.15
286.855	2.15
286.989	27.15
287.123	-2.85
287.258	-25.85
287.392	7.15
287.526	-0.85
287.66	-5.85
287.794	-0.85
287.928	-9.85
288.062	15.15
288.196	18.15
288.33	16.15
288.464	20.15
288.598	19.15
288.733	16.15
288.867	35.15
289.001	12.15
289.135	29.15
289.269	8.15
289.403	-4.85
289.537	2.15
289.671	18.15
289.805	-15.85
289.939	5.15
290.073	3.15
290.207	10.15
290.34	6.15
290.474	13.15
290.608	5.15
290.742	-20.85
290.876	-6.85
291.01	3.15
291.144	21.15
291.278	19.15
291.412	16.15
291.546	16.15
291.679	-8.85
291.813	7.15
291.947	5.15
292.081	-7.85
292.215	8.15
292.349	26.15
292.482	17.15
292.616	-7.85
292.75	-1.85
292.884	12.15
293.018	-11.85
293.151	-18.85
293.285	9.15
293.419	1.15
293.553	1.15
293.686	-12.85
293.82	1.15
293.954	17.15
294.088	50.15
294.221	-6.85
294.355	-3.85
294.489	4.15
294.622	6.15
294.756	8.15
294.89	22.15
295.023	10.15
295.157	19.15
295.291	11.15
295.424	26.15
295.558	-2.85
295.691	3.15
295.825	15.15
295.959	14.15
296.092	14.15
296.226	-1.85
296.359	11.15
296.493	6.15
296.627	1.15
296.76	5.15
296.894	-6.85
297.027	17.15
297.161	4.15
297.294	-20.85
297.428	2.15
297.561	27.15
297.695	-13.85
297.828	3.15
297.962	-7.85
298.095	11.15
298.229	2.15
298.362	-5.85
298.495	1.15
298.629	7.15
298.762	-20.85
298.896	1.15
299.029	-7.85
299.162	-7.85
299.296	29.15
299.429	-3.85
299.563	11.15
299.696	15.15
299.829	4.15
299.963	14.15
300.096	14.15
300.229	27.15
300.363	4.15
300.496	7.15
300.629	-21.85
300.763	-5.85
300.896	2.15
301.029	12.15
301.162	12.15
301.296	-24.85
301.429	7.15
301.562	-20.85
301.695	7.15
301.829	8.15
301.962	32.15
302.095	12.15
302.228	-21.85
302.362	-7.85
302.495	8.15
302.628	-16.85
302.761	2.15
302.894	-9.85
303.027	15.15
303.161	1.15
303.294	-2.85
303.427	12.15
303.56	12.15
303.693	-3.85
303.826	4.15
303.959	-1.85
304.092	2.15
304.225	-5.85
304.359	5.15
304.492	21.15
304.625	-5.85
304.758	3.15
304.891	-8.85
305.024	2.15
305.157	-1.85
305.29	-1.85
305.423	1.15
305.556	10.15
305.689	31.15
305.822	7.15
305.955	16.15
306.088	-3.85
306.221	5.15
306.354	-9.85
306.487	-27.85
306.62	-16.85
306.752	-10.85
306.885	-11.85
307.018	1.15
307.151	8.15
307.284	15.15
307.417	-11.85
307.55	-1.85
307.683	-8.85
307.816	22.15
307.948	13.15
308.081	7.15
308.214	12.15
308.347	12.15
308.48	2.15
308.613	-1.85
308.745	6.15
308.878	-12.85
309.011	27.15
309.144	19.15
309.277	-14.85
309.409	15.15
309.542	5.15
309.675	17.15
309.808	1.15
309.94	24.15
310.073	-17.85
310.206	-15.85
310.339	0.15
310.471	-10.85
310.604	19.15
310.737	11.15
310.869	-10.85
311.002	-3.85
311.135	-13.85
311.267	-14.85
311.4	9.15
311.533	39.15
311.665	3.15
311.798	11.15
311.93	6.15
312.063	24.15
312.196	15.15
312.328	11.15
312.461	3.15
312.593	9.15
312.726	13.15
312.859	16.15
312.991	20.15
313.124	-5.85
313.256	10.15
313.389	18.15
313.521	-2.85
313.654	13.15
313.786	-19.85
313.919	0.15
314.051	-4.85
314.184	14.15
314.316	-5.85
314.449	-22.85
314.581	-5.85
314.714	-0.85
314.846	19.15
314.978	-5.85
315.111	11.15
315.243	-4.85
315.376	-8.85
315.508	-10.85
315.641	5.15
315.773	22.15
315.905	6.15
316.038	4.15
316.17	10.15
316.302	10.15
316.435	0.15
316.567	-18.85
316.699	24.15
316.832	5.15
316.964	2.15
317.096	2.15
317.229	5.15
317.361	-19.85
317.493	9.15
317.625	-0.85
317.758	-4.85
317.89	1.15
318.022	16.15
318.155	-6.85
318.287	-5.85
318.419	-3.85
318.551	4.15
318.683	-4.85
318.816	-6.85
318.948	-3.85
319.08	-18.85
319.212	12.15
319.344	0.15
319.477	-10.85
319.609	-7.85
319.741	17.15
319.873	-6.85
320.005	3.15
320.137	13.15
320.269	13.15
320.401	-2.85
320.534	9.15
320.666	-17.85
320.798	-10.85
320.93	2.15
321.062	-3.85
321.194	-2.85
321.326	3.15
321.458	5.15
321.59	-4.85
321.722	-12.85
321.854	-13.85
321.986	-0.85
322.118	13.15
322.25	-9.85
322.382	10.15
322.514	2.15
322.646	-10.85
322.778	18.15
322.91	-11.85
323.042	5.15
323.174	23.15
323.306	-5.85
323.438	-7.85
323.57	1.15
323.702	11.15
323.834	-10.85
323.966	2.15
324.097	16.15
324.229	18.15
324.361	12.15
324.493	18.15
324.625	-7.85
324.757	7.15
324.889	-5.85
325.021	4.15
325.152	18.15
325.284	22.15
325.416	-2.85
325.548	16.15
325.68	-14.85
325.811	4.15
325.943	-7.85
326.075	-5.85
326.207	10.15
326.339	8.15
326.47	-11.85
326.602	15.15
326.734	23.15
326.866	6.15
326.997	-9.85
327.129	2.15
327.261	-20.85
327.392	-0.85
327.524	19.15
327.656	23.15
327.787	18.15
327.919	6.15
328.051	5.15
328.182	14.15
328.314	24.15
328.446	2.15
328.577	9.15
328.709	2.15
328.841	-12.85
328.972	11.15
329.104	-0.85
329.235	-3.85
329.367	-5.85
329.499	-9.85
329.63	10.15
329.762	-2.85
329.893	4.15
330.025	6.15
330.156	-17.85
330.288	14.15
330.419	9.15
330.551	7.15
330.683	16.15
330.814	19.15
330.946	25.15
331.077	-3.85
331.208	9.15
331.34	3.15
331.471	-15.85
331.603	-17.85
331.734	-21.85
331.866	2.15
331.997	5.15
332.129	-4.85
332.26	-5.85
332.392	8.15
332.523	6.15
332.654	-18.85
332.786	-2.85
332.917	5.15
333.048	14.15
333.18	23.15
333.311	-7.85
333.443	11.15
333.574	13.15
333.705	12.15
333.837	1.15
333.968	4.15
334.099	35.15
334.231	19.15
334.362	-24.85
334.493	15.15
334.624	22.15
334.756	18.15
334.887	2.15
335.018	6.15
335.15	10.15
335.281	2.15
335.412	18.15
335.543	16.15
335.675	1.15
335.806	3.15
335.937	-2.85
336.068	20.15
336.199	35.15
336.331	7.15
336.462	-0.85
336.593	21.15
336.724	10.15
336.855	23.15
336.986	1.15
337.118	15.15
337.249	5.15
337.38	11.15
337.511	4.15
337.642	-5.85
337.773	19.15
337.904	2.15
338.035	-1.85
338.166	-5.85
338.298	-4.85
338.429	-10.85
338.56	18.15
338.691	20.15
338.822	-11.85
338.953	11.15
339.084	29.15
339.215	21.15
339.346	-4.85
339.477	7.15
339.608	-0.85
339.739	-5.85
339.87	-7.85
340.001	-22.85
340.132	-0.85
340.263	-4.85
340.394	13.15
340.525	8.15
340.656	3.15
340.787	-18.85
340.918	15.15
341.049	8.15
341.179	0.15
341.31	17.15
341.441	13.15
341.572	8.15
341.703	2.15
341.834	-3.85
341.965	23.15
342.096	1.15
342.227	9.15
342.357	7.15
342.488	9.15
342.619	8.15
342.75	2.15
342.881	-0.85
343.012	23.15
343.142	22.15
343.273	1.15
343.404	36.15
343.535	33.15
343.666	25.15
343.796	10.15
343.927	17.15
344.058	9.15
344.189	19.15
344.319	15.15
344.45	8.15
344.581	4.15
344.712	0.15
344.842	5.15
344.973	-12.85
345.104	9.15
345.234	17.15
345.365	-27.85
345.496	-7.85
345.626	-11.85
345.757	10.15
345.888	-9.85
346.018	11.15
346.149	3.15
346.28	23.15
346.41	9.15
346.541	19.15
346.672	3.15
346.802	15.15
346.933	21.15
347.063	4.15
347.194	-11.85
347.325	10.15
347.455	23.15
347.586	-4.85
347.716	-6.85
347.847	8.15
347.977	27.15
348.108	10.15
348.238	12.15
348.369	-5.85
348.499	21.15
348.63	17.15
348.76	22.15
348.891	18.15
349.021	5.15
349.152	-2.85
349.282	-10.85
349.413	-13.85
349.543	20.15
349.674	3.15
349.804	6.15
349.935	4.15
350.065	-8.85
350.196	-8.85
350.326	9.15
350.456	2.15
350.587	17.15
350.717	10.15
350.848	7.15
350.978	12.15
351.108	6.15
351.239	22.15
351.369	-2.85
351.499	8.15
351.63	5.15
351.76	-2.85
351.89	-9.85
352.021	5.15
352.151	8.15
352.281	10.15
352.412	26.15
352.542	5.15
352.672	15.15
352.803	-0.85
352.933	14.15
353.063	5.15
353.193	13.15
353.324	12.15
353.454	19.15
353.584	21.15
353.714	0.15
353.845	2.15
353.975	5.15
354.105	-8.85
354.235	9.15
354.365	-19.85
354.496	1.15
354.626	21.15
354.756	11.15
354.886	17.15
355.016	-9.85
355.146	5.15
355.277	0.15
355.407	9.15
355.537	9.15
355.667	17.15
355.797	-6.85
355.927	2.15
356.057	12.15
356.187	10.15
356.318	6.15
356.448	2.15
356.578	27.15
356.708	22.15
356.838	1.15
356.968	-6.85
357.098	13.15
357.228	7.15
357.358	-20.85
357.488	7.15
357.618	28.15
357.748	27.15
357.878	2.15
358.008	-13.85
358.138	16.15
358.268	4.15
358.398	22.15
358.528	-4.85
358.658	-4.85
358.788	22.15
358.918	28.15
359.048	13.15
359.178	16.15
359.308	-1.85
359.438	29.15
359.568	26.15
359.698	12.15
359.827	13.15
359.957	28.15
360.087	19.15
360.217	-9.85
360.347	25.15
360.477	14.15
360.607	-4.85
360.737	15.15
360.866	-9.85
360.996	-13.85
361.126	-18.85
361.256	6.15
361.386	14.15
361.516	32.15
361.645	-4.85
361.775	18.15
361.905	-12.85
362.035	-0.85
362.165	-5.85
362.294	5.15
362.424	16.15
362.554	23.15
362.684	-2.85
362.813	13.15
362.943	26.15
363.073	12.15
363.203	14.15
363.332	11.15
363.462	5.15
363.592	4.15
363.721	16.15
363.851	11.15
363.981	24.15
364.111	-1.85
364.24	0.15
364.37	22.15
364.5	23.15
364.629	-0.85
364.759	-13.85
364.888	-13.85
365.018	-8.85
365.148	7.15
365.277	7.15
365.407	12.15
365.537	18.15
365.666	19.15
365.796	16.15
365.925	-0.85
366.055	9.15
366.184	-10.85
366.314	11.15
366.444	13.15
366.573	-8.85
366.703	-0.85
366.832	13.15
366.962	12.15
367.091	22.15
367.221	-3.85
367.35	7.15
367.48	28.15
367.609	15.15
367.739	2.15
367.868	7.15
367.998	-3.85
368.127	14.15
368.257	12.15
368.386	12.15
368.516	28.15
368.645	19.15
368.775	19.15
368.904	0.15
369.033	8.15
369.163	-5.85
369.292	11.15
369.422	1.15
369.551	20.15
369.68	28.15
369.81	8.15
369.939	1.15
370.069	26.15
370.198	11.15
370.327	-5.85
370.457	2.15
370.586	8.15
370.715	2.15
370.845	2.15
370.974	8.15
371.103	28.15
371.233	6.15
371.362	1.15
371.491	-16.85
371.621	2.15
371.75	-4.85
371.879	-3.85
372.008	15.15
372.138	3.15
372.267	7.15
372.396	-3.85
372.525	2.15
372.655	-13.85
372.784	6.15
372.913	-5.85
373.042	20.15
373.172	29.15
373.301	-18.85
373.43	-21.85
373.559	2.15
373.688	27.15
373.818	33.15
373.947	19.15
374.076	4.15
374.205	11.15
374.334	-6.85
374.463	2.15
374.593	3.15
374.722	2.15
374.851	32.15
374.98	-2.85
375.109	-6.85
375.238	5.15
375.367	39.15
375.496	2.15
375.625	-18.85
375.755	11.15
375.884	28.15
376.013	24.15
376.142	-8.85
376.271	-7.85
376.4	2.15
376.529	-8.85
376.658	20.15
376.787	8.15
376.916	5.15
377.045	-0.85
377.174	4.15
377.303	3.15
377.432	27.15
377.561	0.15
377.69	9.15
377.819	32.15
377.948	-0.85
378.077	-5.85
378.206	1.15
378.335	7.15
378.464	12.15
378.593	21.15
378.722	5.15
378.851	-6.85
378.98	30.15
379.108	-26.85
379.237	-9.85
379.366	-7.85
379.495	9.15
379.624	24.15
379.753	15.15
379.882	14.15
380.011	-2.85
380.14	-9.85
380.268	7.15
380.397	-1.85
380.526	35.15
380.655	6.15
380.784	-9.85
380.913	-12.85
381.041	20.15
381.17	2.15
381.299	-2.85
381.428	8.15
381.557	33.15
381.685	14.15
381.814	2.15
381.943	1.15
382.072	-20.85
382.2	-13.85
382.329	-7.85
382.458	12.15
382.587	15.15
382.715	26.15
382.844	14.15
382.973	18.15
383.102	13.15
383.23	13.15
383.359	7.15
383.488	26.15
383.616	5.15
383.745	-0.85
383.874	11.15
384.003	-5.85
384.131	-20.85
384.26	0.15
384.389	-10.85
384.517	-13.85
384.646	-9.85
384.774	7.15
384.903	26.15
385.032	16.15
385.16	-5.85
385.289	-0.85
385.418	-3.85
385.546	10.15
385.675	32.15
385.803	7.15
385.932	-0.85
386.06	-10.85
386.189	-2.85
386.318	23.15
386.446	-10.85
386.575	10.15
386.703	10.15
386.832	0.15
386.96	-12.85
387.089	27.15
387.217	18.15
387.346	-1.85
387.474	10.15
387.603	9.15
387.731	17.15
387.86	12.15
387.988	5.15
388.117	3.15
388.245	3.15
388.374	-9.85
388.502	10.15
388.631	-3.85
388.759	5.15
388.888	33.15
389.016	13.15
389.144	22.15
389.273	18.15
389.401	-6.85
389.53	-10.85
389.658	21.15
389.786	2.15
389.915	-3.85
390.043	-10.85
390.172	3.15
390.3	43.15
390.428	35.15
390.557	7.15
390.685	19.15
390.813	16.15
390.942	12.15
391.07	-16.85
391.198	-4.85
391.327	-3.85
391.455	-11.85
391.583	14.15
391.712	0.15
391.84	21.15
391.968	2.15
392.096	23.15
392.225	6.15
392.353	21.15
392.481	10.15
392.609	28.15
392.738	37.15
392.866	24.15
392.994	0.15
393.122	22.15
393.251	18.15
393.379	9.15
393.507	-16.85
393.635	5.15
393.764	19.15
393.892	16.15
394.02	-7.85
394.148	-12.85
394.276	15.15
394.404	36.15
394.533	8.15
394.661	1.15
394.789	16.15
394.917	29.15
395.045	11.15
395.173	-0.85
395.302	5.15
395.43	1.15
395.558	3.15
395.686	4.15
395.814	1.15
395.942	-11.85
396.07	-5.85
396.198	5.15
396.326	5.15
396.454	8.15
396.582	10.15
396.711	-6.85
396.839	10.15
396.967	1.15
397.095	15.15
397.223	13.15
397.351	38.15
397.479	26.15
397.607	-2.85
397.735	5.15
397.863	20.15
397.991	-0.85
398.119	-7.85
398.247	-4.85
398.375	-12.85
398.503	9.15
398.631	25.15
398.759	3.15
398.887	11.15
399.015	14.15
399.143	-1.85
399.271	8.15
399.399	15.15
399.526	12.15
399.654	27.15
399.782	-7.85
399.91	35.15
400.038	21.15
400.166	-9.85
400.294	11.15
400.422	-2.85
400.55	17.15
400.678	-0.85
400.805	4.15
400.933	5.15
401.061	15.15
401.189	-2.85
401.317	21.15
401.445	25.15
401.573	19.15
401.7	3.15
401.828	2.15
401.956	15.15
402.084	15.15
402.212	3.15
402.34	-6.85
402.467	15.15
402.595	17.15
402.723	0.15
402.851	23.15
402.978	16.15
403.106	10.15
403.234	6.15
403.362	27.15
403.489	23.15
403.617	6.15
403.745	9.15
403.873	-8.85
404	-5.85
404.128	9.15
404.256	12.15
404.384	12.15
404.511	15.15
404.639	7.15
404.767	3.15
404.894	-5.85
405.022	-21.85
405.15	19.15
405.277	-8.85
405.405	-11.85
405.533	2.15
405.66	-5.85
405.788	-0.85
405.916	-16.85
406.043	10.15
406.171	10.15
406.299	3.15
406.426	-3.85
406.554	14.15
406.681	37.15
406.809	24.15
406.937	2.15
407.064	0.15
407.192	29.15
407.319	8.15
407.447	-1.85
407.574	10.15
407.702	-3.85
407.83	-11.85
407.957	-11.85
408.085	14.15
408.212	29.15
408.34	17.15
408.467	-19.85
408.595	5.15
408.722	8.15
408.85	20.15
408.977	-5.85
409.105	9.15
409.232	-1.85
409.36	-2.85
409.487	-0.85
409.615	20.15
409.742	33.15
409.87	39.15
409.997	53.15
410.125	55.15
410.252	49.15
410.379	38.15
410.507	26.15
410.634	12.15
410.762	4.15
410.889	17.15
411.017	-2.85
411.144	8.15
411.271	-3.85
411.399	26.15
411.526	16.15
411.653	30.15
411.781	40.15
411.908	18.15
412.036	12.15
412.163	26.15
412.29	28.15
412.418	19.15
412.545	24.15
412.672	4.15
412.8	50.15
412.927	14.15
413.054	24.15
413.182	2.15
413.309	4.15
413.436	-17.85
413.564	-9.85
413.691	0.15
413.818	23.15
413.945	-6.85
414.073	-4.85
414.2	21.15
414.327	25.15
414.454	17.15
414.582	4.15
414.709	-8.85
414.836	17.15
414.963	9.15
415.091	14.15
415.218	-2.85
415.345	6.15
415.472	15.15
415.6	-5.85
415.727	-5.85
415.854	32.15
415.981	7.15
416.108	4.15
416.236	8.15
416.363	22.15
416.49	1.15
416.617	6.15
416.744	30.15
416.871	4.15
416.998	-4.85
417.126	10.15
417.253	9.15
417.38	2.15
417.507	-5.85
417.634	10.15
417.761	16.15
417.888	13.15
418.015	-2.85
418.143	8.15
418.27	25.15
418.397	11.15
418.524	16.15
418.651	-4.85
418.778	26.15
418.905	21.15
419.032	7.15
419.159	-0.85
419.286	27.15
419.413	23.15
419.54	18.15
419.667	-6.85
419.794	-22.85
419.921	13.15
420.048	18.15
420.175	9.15
420.302	7.15
420.429	5.15
420.556	7.15
420.683	6.15
