Data from LowRes_H2_15_26_11_07_2024_HR4C61881__76__15-28-21-236.txt Node

Date: Thu Nov 07 15:28:21 EST 2024
User: crc00042
Spectrometer: HR4C6188
Trigger mode: 4
Integration Time (sec): 1.000000E-1
Scans to average: 1
Electric dark correction enabled: true
Nonlinearity correction enabled: false
Boxcar width: 0
XAxis mode: Wavelengths
Number of Pixels in Spectrum: 3648
>>>>>Begin Spectral Data<<<<<
245.66	-107.62
245.797	-107.62
245.934	-107.62
246.071	-90.62
246.208	17.38
246.344	11.38
246.481	-24.62
246.618	5.38
246.755	13.38
246.892	7.38
247.029	-16.62
247.165	-18.62
247.302	11.38
247.439	10.38
247.576	15.38
247.713	-14.62
247.849	23.38
247.986	-23.62
248.123	-4.62
248.26	2.38
248.396	30.38
248.533	-4.62
248.67	0.38
248.806	0.38
248.943	-12.62
249.08	-7.62
249.216	10.38
249.353	-24.62
249.49	-3.62
249.626	-15.62
249.763	-6.62
249.9	2.38
250.036	16.38
250.173	21.38
250.309	5.38
250.446	1.38
250.582	0.38
250.719	-8.62
250.856	9.38
250.992	3.38
251.129	8.38
251.265	-4.62
251.402	13.38
251.538	-10.62
251.675	4.38
251.811	13.38
251.948	11.38
252.084	-0.62
252.221	1.38
252.357	-3.62
252.493	31.38
252.63	5.38
252.766	15.38
252.903	-6.62
253.039	-10.62
253.175	-3.62
253.312	0.38
253.448	-17.62
253.585	-19.62
253.721	-8.62
253.857	-2.62
253.994	-2.62
254.13	3.38
254.266	-19.62
254.403	1.38
254.539	21.38
254.675	24.38
254.811	11.38
254.948	-3.62
255.084	0.38
255.22	3.38
255.356	4.38
255.493	11.38
255.629	11.38
255.765	8.38
255.901	15.38
256.037	19.38
256.174	7.38
256.31	-8.62
256.446	15.38
256.582	14.38
256.718	2.38
256.854	16.38
256.991	6.38
257.127	12.38
257.263	-1.62
257.399	9.38
257.535	-7.62
257.671	4.38
257.807	-3.62
257.943	-7.62
258.079	-25.62
258.215	4.38
258.351	22.38
258.487	14.38
258.623	22.38
258.759	1.38
258.895	20.38
259.031	0.38
259.167	3.38
259.303	19.38
259.439	-7.62
259.575	-2.62
259.711	-17.62
259.847	17.38
259.983	12.38
260.119	-9.62
260.255	6.38
260.391	6.38
260.527	6.38
260.663	10.38
260.799	34.38
260.934	12.38
261.07	-7.62
261.206	-22.62
261.342	-15.62
261.478	25.38
261.614	10.38
261.749	16.38
261.885	8.38
262.021	6.38
262.157	6.38
262.293	-17.62
262.428	-4.62
262.564	24.38
262.7	18.38
262.836	-12.62
262.971	21.38
263.107	9.38
263.243	27.38
263.378	10.38
263.514	-11.62
263.65	13.38
263.785	-9.62
263.921	-4.62
264.057	3.38
264.192	22.38
264.328	25.38
264.464	-8.62
264.599	14.38
264.735	8.38
264.871	-15.62
265.006	9.38
265.142	-1.62
265.277	12.38
265.413	12.38
265.548	14.38
265.684	22.38
265.819	3.38
265.955	-12.62
266.091	-25.62
266.226	-14.62
266.362	14.38
266.497	13.38
266.633	8.38
266.768	-3.62
266.903	5.38
267.039	18.38
267.174	24.38
267.31	6.38
267.445	8.38
267.581	2.38
267.716	24.38
267.851	4.38
267.987	26.38
268.122	12.38
268.258	6.38
268.393	-5.62
268.528	19.38
268.664	-3.62
268.799	-20.62
268.934	26.38
269.07	-1.62
269.205	18.38
269.34	25.38
269.476	2.38
269.611	-5.62
269.746	18.38
269.881	8.38
270.017	12.38
270.152	15.38
270.287	16.38
270.422	13.38
270.558	-2.62
270.693	2.38
270.828	-10.62
270.963	-11.62
271.098	-7.62
271.234	-11.62
271.369	23.38
271.504	4.38
271.639	3.38
271.774	-5.62
271.909	-19.62
272.045	-16.62
272.18	-4.62
272.315	-7.62
272.45	16.38
272.585	-6.62
272.72	-0.62
272.855	1.38
272.99	10.38
273.125	-5.62
273.26	-0.62
273.395	-0.62
273.53	-3.62
273.665	16.38
273.8	9.38
273.935	3.38
274.07	4.38
274.205	14.38
274.34	-3.62
274.475	-17.62
274.61	24.38
274.745	-3.62
274.88	24.38
275.015	-14.62
275.15	6.38
275.285	6.38
275.42	-2.62
275.555	31.38
275.69	17.38
275.825	4.38
275.959	15.38
276.094	-0.62
276.229	2.38
276.364	-0.62
276.499	-5.62
276.634	1.38
276.768	-4.62
276.903	-1.62
277.038	11.38
277.173	22.38
277.308	9.38
277.442	5.38
277.577	-16.62
277.712	11.38
277.847	30.38
277.981	14.38
278.116	-12.62
278.251	1.38
278.386	12.38
278.52	8.38
278.655	-1.62
278.79	-5.62
278.924	-2.62
279.059	10.38
279.194	-17.62
279.328	44.38
279.463	22.38
279.598	20.38
279.732	22.38
279.867	0.38
280.001	-0.62
280.136	0.38
280.271	-3.62
280.405	12.38
280.54	4.38
280.674	-14.62
280.809	11.38
280.943	-0.62
281.078	18.38
281.213	25.38
281.347	13.38
281.482	20.38
281.616	2.38
281.751	11.38
281.885	0.38
282.02	8.38
282.154	7.38
282.288	-17.62
282.423	-13.62
282.557	-6.62
282.692	9.38
282.826	4.38
282.961	6.38
283.095	10.38
283.229	-13.62
283.364	-17.62
283.498	21.38
283.633	17.38
283.767	-26.62
283.901	-8.62
284.036	0.38
284.17	-12.62
284.304	1.38
284.439	1.38
284.573	-12.62
284.707	10.38
284.842	-15.62
284.976	-3.62
285.11	-19.62
285.244	9.38
285.379	48.38
285.513	17.38
285.647	0.38
285.781	-0.62
285.916	19.38
286.05	-4.62
286.184	6.38
286.318	13.38
286.453	-5.62
286.587	-14.62
286.721	-12.62
286.855	6.38
286.989	16.38
287.123	8.38
287.258	-4.62
287.392	-16.62
287.526	17.38
287.66	3.38
287.794	2.38
287.928	-8.62
288.062	0.38
288.196	22.38
288.33	16.38
288.464	23.38
288.598	21.38
288.733	11.38
288.867	2.38
289.001	6.38
289.135	-0.62
289.269	-11.62
289.403	1.38
289.537	12.38
289.671	25.38
289.805	0.38
289.939	21.38
290.073	11.38
290.207	24.38
290.34	6.38
290.474	12.38
290.608	21.38
290.742	5.38
290.876	3.38
291.01	-6.62
291.144	27.38
291.278	4.38
291.412	-1.62
291.546	-1.62
291.679	3.38
291.813	-8.62
291.947	15.38
292.081	-1.62
292.215	11.38
292.349	26.38
292.482	23.38
292.616	-8.62
292.75	3.38
292.884	-0.62
293.018	-4.62
293.151	-10.62
293.285	9.38
293.419	-10.62
293.553	10.38
293.686	2.38
293.82	9.38
293.954	27.38
294.088	30.38
294.221	-14.62
294.355	-6.62
294.489	22.38
294.622	-6.62
294.756	1.38
294.89	23.38
295.023	15.38
295.157	-10.62
295.291	2.38
295.424	17.38
295.558	-12.62
295.691	-0.62
295.825	-13.62
295.959	1.38
296.092	3.38
296.226	-1.62
296.359	6.38
296.493	2.38
296.627	8.38
296.76	12.38
296.894	5.38
297.027	2.38
297.161	-5.62
297.294	-24.62
297.428	-5.62
297.561	35.38
297.695	-12.62
297.828	-1.62
297.962	-3.62
298.095	-14.62
298.229	2.38
298.362	-7.62
298.495	-5.62
298.629	-14.62
298.762	-1.62
298.896	6.38
299.029	-5.62
299.162	11.38
299.296	10.38
299.429	10.38
299.563	2.38
299.696	5.38
299.829	8.38
299.963	11.38
300.096	10.38
300.229	11.38
300.363	22.38
300.496	32.38
300.629	-1.62
300.763	-14.62
300.896	3.38
301.029	6.38
301.162	6.38
301.296	-11.62
301.429	8.38
301.562	-2.62
301.695	5.38
301.829	16.38
301.962	20.38
302.095	-1.62
302.228	-7.62
302.362	5.38
302.495	-13.62
302.628	6.38
302.761	5.38
302.894	9.38
303.027	9.38
303.161	-11.62
303.294	-17.62
303.427	15.38
303.56	-2.62
303.693	6.38
303.826	10.38
303.959	18.38
304.092	10.38
304.225	-13.62
304.359	-3.62
304.492	1.38
304.625	-7.62
304.758	14.38
304.891	-9.62
305.024	-4.62
305.157	-8.62
305.29	2.38
305.423	5.38
305.556	13.38
305.689	17.38
305.822	9.38
305.955	5.38
306.088	3.38
306.221	3.38
306.354	10.38
306.487	-5.62
306.62	-6.62
306.752	3.38
306.885	16.38
307.018	2.38
307.151	19.38
307.284	28.38
307.417	-8.62
307.55	9.38
307.683	4.38
307.816	-0.62
307.948	-10.62
308.081	16.38
308.214	13.38
308.347	29.38
308.48	-17.62
308.613	-29.62
308.745	1.38
308.878	-0.62
309.011	5.38
309.144	17.38
309.277	2.38
309.409	10.38
309.542	6.38
309.675	-3.62
309.808	2.38
309.94	18.38
310.073	-8.62
310.206	-7.62
310.339	4.38
310.471	-1.62
310.604	14.38
310.737	-1.62
310.869	1.38
311.002	11.38
311.135	-14.62
311.267	-18.62
311.4	-13.62
311.533	19.38
311.665	12.38
311.798	-9.62
311.93	-16.62
312.063	17.38
312.196	-0.62
312.328	7.38
312.461	12.38
312.593	14.38
312.726	20.38
312.859	3.38
312.991	10.38
313.124	-10.62
313.256	29.38
313.389	10.38
313.521	10.38
313.654	-2.62
313.786	-17.62
313.919	-8.62
314.051	2.38
314.184	-3.62
314.316	-1.62
314.449	-18.62
314.581	-9.62
314.714	-8.62
314.846	16.38
314.978	-14.62
315.111	13.38
315.243	26.38
315.376	19.38
315.508	0.38
315.641	7.38
315.773	33.38
315.905	4.38
316.038	3.38
316.17	-0.62
316.302	22.38
316.435	7.38
316.567	-0.62
316.699	12.38
316.832	-14.62
316.964	-11.62
317.096	-5.62
317.229	-9.62
317.361	-4.62
317.493	-17.62
317.625	-16.62
317.758	-8.62
317.89	12.38
318.022	0.38
318.155	4.38
318.287	4.38
318.419	3.38
318.551	-10.62
318.683	-9.62
318.816	-8.62
318.948	-7.62
319.08	-9.62
319.212	8.38
319.344	18.38
319.477	6.38
319.609	3.38
319.741	13.38
319.873	-6.62
320.005	2.38
320.137	9.38
320.269	5.38
320.401	0.38
320.534	26.38
320.666	-3.62
320.798	-20.62
320.93	3.38
321.062	-4.62
321.194	-9.62
321.326	17.38
321.458	19.38
321.59	-6.62
321.722	-3.62
321.854	2.38
321.986	12.38
322.118	-0.62
322.25	-17.62
322.382	-1.62
322.514	-9.62
322.646	-16.62
322.778	3.38
322.91	-7.62
323.042	27.38
323.174	17.38
323.306	-5.62
323.438	-22.62
323.57	13.38
323.702	-16.62
323.834	3.38
323.966	-4.62
324.097	9.38
324.229	21.38
324.361	2.38
324.493	16.38
324.625	0.38
324.757	6.38
324.889	17.38
325.021	2.38
325.152	11.38
325.284	13.38
325.416	3.38
325.548	8.38
325.68	-6.62
325.811	16.38
325.943	12.38
326.075	-12.62
326.207	20.38
326.339	6.38
326.47	-19.62
326.602	10.38
326.734	22.38
326.866	17.38
326.997	-19.62
327.129	-11.62
327.261	-21.62
327.392	16.38
327.524	14.38
327.656	4.38
327.787	17.38
327.919	4.38
328.051	25.38
328.182	22.38
328.314	20.38
328.446	4.38
328.577	32.38
328.709	12.38
328.841	-16.62
328.972	-4.62
329.104	1.38
329.235	-6.62
329.367	6.38
329.499	5.38
329.63	20.38
329.762	12.38
329.893	25.38
330.025	8.38
330.156	2.38
330.288	22.38
330.419	23.38
330.551	7.38
330.683	11.38
330.814	8.38
330.946	27.38
331.077	0.38
331.208	4.38
331.34	-7.62
331.471	-10.62
331.603	4.38
331.734	-11.62
331.866	-1.62
331.997	1.38
332.129	2.38
332.26	-0.62
332.392	20.38
332.523	-4.62
332.654	-18.62
332.786	4.38
332.917	-16.62
333.048	-1.62
333.18	13.38
333.311	7.38
333.443	1.38
333.574	7.38
333.705	11.38
333.837	19.38
333.968	-4.62
334.099	16.38
334.231	14.38
334.362	7.38
334.493	10.38
334.624	6.38
334.756	2.38
334.887	15.38
335.018	6.38
335.15	24.38
335.281	-3.62
335.412	18.38
335.543	22.38
335.675	1.38
335.806	-9.62
335.937	-1.62
336.068	11.38
336.199	40.38
336.331	-5.62
336.462	-8.62
336.593	21.38
336.724	-1.62
336.855	1.38
336.986	-2.62
337.118	17.38
337.249	27.38
337.38	13.38
337.511	2.38
337.642	13.38
337.773	11.38
337.904	12.38
338.035	4.38
338.166	-4.62
338.298	-4.62
338.429	2.38
338.56	21.38
338.691	32.38
338.822	13.38
338.953	0.38
339.084	27.38
339.215	19.38
339.346	-10.62
339.477	1.38
339.608	6.38
339.739	-7.62
339.87	15.38
340.001	2.38
340.132	18.38
340.263	-0.62
340.394	19.38
340.525	8.38
340.656	-2.62
340.787	-10.62
340.918	15.38
341.049	12.38
341.179	-2.62
341.31	11.38
341.441	13.38
341.572	15.38
341.703	1.38
341.834	1.38
341.965	18.38
342.096	-1.62
342.227	4.38
342.357	-1.62
342.488	28.38
342.619	22.38
342.75	6.38
342.881	-13.62
343.012	31.38
343.142	15.38
343.273	-9.62
343.404	10.38
343.535	49.38
343.666	3.38
343.796	16.38
343.927	12.38
344.058	31.38
344.189	17.38
344.319	5.38
344.45	25.38
344.581	-3.62
344.712	-1.62
344.842	-9.62
344.973	5.38
345.104	13.38
345.234	-0.62
345.365	-14.62
345.496	5.38
345.626	9.38
345.757	24.38
345.888	6.38
346.018	34.38
346.149	14.38
346.28	24.38
346.41	-0.62
346.541	3.38
346.672	-3.62
346.802	17.38
346.933	5.38
347.063	-3.62
347.194	-1.62
347.325	2.38
347.455	-0.62
347.586	5.38
347.716	9.38
347.847	8.38
347.977	0.38
348.108	5.38
348.238	14.38
348.369	1.38
348.499	19.38
348.63	9.38
348.76	-2.62
348.891	0.38
349.021	6.38
349.152	13.38
349.282	3.38
349.413	0.38
349.543	18.38
349.674	11.38
349.804	12.38
349.935	-4.62
350.065	7.38
350.196	8.38
350.326	7.38
350.456	11.38
350.587	46.38
350.717	20.38
350.848	14.38
350.978	-11.62
351.108	-18.62
351.239	6.38
351.369	0.38
351.499	-2.62
351.63	14.38
351.76	-4.62
351.89	12.38
352.021	11.38
352.151	-9.62
352.281	-10.62
352.412	23.38
352.542	9.38
352.672	3.38
352.803	13.38
352.933	18.38
353.063	18.38
353.193	5.38
353.324	16.38
353.454	19.38
353.584	18.38
353.714	-5.62
353.845	-2.62
353.975	-15.62
354.105	-7.62
354.235	-3.62
354.365	7.38
354.496	19.38
354.626	17.38
354.756	10.38
354.886	-1.62
355.016	6.38
355.146	-17.62
355.277	23.38
355.407	-12.62
355.537	16.38
355.667	19.38
355.797	-5.62
355.927	-3.62
356.057	-4.62
356.187	-8.62
356.318	2.38
356.448	-0.62
356.578	7.38
356.708	26.38
356.838	12.38
356.968	-0.62
357.098	17.38
357.228	7.38
357.358	-3.62
357.488	1.38
357.618	32.38
357.748	19.38
357.878	11.38
358.008	-8.62
358.138	1.38
358.268	1.38
358.398	21.38
358.528	-22.62
358.658	9.38
358.788	12.38
358.918	29.38
359.048	4.38
359.178	25.38
359.308	16.38
359.438	29.38
359.568	14.38
359.698	6.38
359.827	18.38
359.957	6.38
360.087	18.38
360.217	9.38
360.347	5.38
360.477	11.38
360.607	-15.62
360.737	12.38
360.866	-2.62
360.996	9.38
361.126	-0.62
361.256	20.38
361.386	26.38
361.516	25.38
361.645	-7.62
361.775	9.38
361.905	-33.62
362.035	21.38
362.165	18.38
362.294	5.38
362.424	4.38
362.554	20.38
362.684	-5.62
362.813	0.38
362.943	5.38
363.073	7.38
363.203	1.38
363.332	10.38
363.462	4.38
363.592	-8.62
363.721	-6.62
363.851	13.38
363.981	17.38
364.111	1.38
364.24	-27.62
364.37	3.38
364.5	13.38
364.629	6.38
364.759	-5.62
364.888	-6.62
365.018	15.38
365.148	13.38
365.277	3.38
365.407	22.38
365.537	1.38
365.666	3.38
365.796	-4.62
365.925	-7.62
366.055	1.38
366.184	20.38
366.314	21.38
366.444	24.38
366.573	19.38
366.703	14.38
366.832	15.38
366.962	-3.62
367.091	14.38
367.221	6.38
367.35	6.38
367.48	36.38
367.609	31.38
367.739	15.38
367.868	-6.62
367.998	7.38
368.127	18.38
368.257	19.38
368.386	19.38
368.516	19.38
368.645	-1.62
368.775	8.38
368.904	10.38
369.033	-11.62
369.163	8.38
369.292	19.38
369.422	5.38
369.551	9.38
369.68	8.38
369.81	14.38
369.939	18.38
370.069	44.38
370.198	21.38
370.327	-7.62
370.457	-0.62
370.586	18.38
370.715	9.38
370.845	1.38
370.974	6.38
371.103	21.38
371.233	18.38
371.362	-3.62
371.491	-1.62
371.621	12.38
371.75	-6.62
371.879	-7.62
372.008	11.38
372.138	-6.62
372.267	16.38
372.396	-5.62
372.525	8.38
372.655	10.38
372.784	0.38
372.913	6.38
373.042	14.38
373.172	23.38
373.301	-4.62
373.43	-10.62
373.559	4.38
373.688	23.38
373.818	22.38
373.947	10.38
374.076	-9.62
374.205	21.38
374.334	15.38
374.463	-5.62
374.593	11.38
374.722	12.38
374.851	10.38
374.98	-9.62
375.109	2.38
375.238	6.38
375.367	36.38
375.496	-5.62
375.625	1.38
375.755	25.38
375.884	37.38
376.013	5.38
376.142	-2.62
376.271	4.38
376.4	-4.62
376.529	8.38
376.658	1.38
376.787	-2.62
376.916	15.38
377.045	15.38
377.174	14.38
377.303	-8.62
377.432	7.38
377.561	8.38
377.69	11.38
377.819	32.38
377.948	3.38
378.077	-13.62
378.206	-9.62
378.335	4.38
378.464	-11.62
378.593	21.38
378.722	1.38
378.851	-2.62
378.98	24.38
379.108	-5.62
379.237	-25.62
379.366	3.38
379.495	34.38
379.624	29.38
379.753	19.38
379.882	4.38
380.011	4.38
380.14	-13.62
380.268	13.38
380.397	-16.62
380.526	6.38
380.655	-3.62
380.784	-0.62
380.913	-5.62
381.041	5.38
381.17	-3.62
381.299	-14.62
381.428	9.38
381.557	25.38
381.685	-2.62
381.814	-7.62
381.943	12.38
382.072	6.38
382.2	-2.62
382.329	15.38
382.458	16.38
382.587	20.38
382.715	18.38
382.844	22.38
382.973	24.38
383.102	15.38
383.23	0.38
383.359	-13.62
383.488	14.38
383.616	11.38
383.745	-5.62
383.874	-1.62
384.003	9.38
384.131	-6.62
384.26	-9.62
384.389	15.38
384.517	7.38
384.646	2.38
384.774	3.38
384.903	30.38
385.032	26.38
385.16	0.38
385.289	-4.62
385.418	-5.62
385.546	-10.62
385.675	12.38
385.803	12.38
385.932	-3.62
386.06	10.38
386.189	9.38
386.318	7.38
386.446	-2.62
386.575	17.38
386.703	18.38
386.832	22.38
386.96	-2.62
387.089	28.38
387.217	3.38
387.346	-12.62
387.474	2.38
387.603	17.38
387.731	25.38
387.86	6.38
387.988	14.38
388.117	26.38
388.245	21.38
388.374	-2.62
388.502	5.38
388.631	-4.62
388.759	4.38
388.888	-1.62
389.016	-0.62
389.144	17.38
389.273	8.38
389.401	5.38
389.53	-9.62
389.658	27.38
389.786	3.38
389.915	-7.62
390.043	1.38
390.172	10.38
390.3	23.38
390.428	13.38
390.557	-7.62
390.685	12.38
390.813	11.38
390.942	7.38
391.07	9.38
391.198	-11.62
391.327	-8.62
391.455	-0.62
391.583	19.38
391.712	24.38
391.84	8.38
391.968	11.38
392.096	6.38
392.225	5.38
392.353	15.38
392.481	-13.62
392.609	34.38
392.738	21.38
392.866	16.38
392.994	-5.62
393.122	27.38
393.251	-15.62
393.379	-0.62
393.507	-14.62
393.635	6.38
393.764	4.38
393.892	9.38
394.02	-9.62
394.148	-0.62
394.276	2.38
394.404	30.38
394.533	1.38
394.661	24.38
394.789	25.38
394.917	28.38
395.045	7.38
395.173	16.38
395.302	-2.62
395.43	14.38
395.558	25.38
395.686	16.38
395.814	15.38
395.942	-2.62
396.07	18.38
396.198	15.38
396.326	13.38
396.454	16.38
396.582	-1.62
396.711	9.38
396.839	7.38
396.967	25.38
397.095	11.38
397.223	22.38
397.351	30.38
397.479	14.38
397.607	11.38
397.735	21.38
397.863	22.38
397.991	22.38
398.119	-8.62
398.247	-8.62
398.375	-3.62
398.503	4.38
398.631	-9.62
398.759	2.38
398.887	11.38
399.015	-6.62
399.143	13.38
399.271	0.38
399.399	1.38
399.526	12.38
399.654	14.38
399.782	-14.62
399.91	18.38
400.038	10.38
400.166	0.38
400.294	6.38
400.422	3.38
400.55	13.38
400.678	20.38
400.805	15.38
400.933	14.38
401.061	26.38
401.189	3.38
401.317	25.38
401.445	36.38
401.573	8.38
401.7	6.38
401.828	5.38
401.956	10.38
402.084	18.38
402.212	12.38
402.34	2.38
402.467	3.38
402.595	3.38
402.723	-9.62
402.851	21.38
402.978	-0.62
403.106	11.38
403.234	3.38
403.362	41.38
403.489	25.38
403.617	-7.62
403.745	3.38
403.873	-5.62
404	28.38
404.128	6.38
404.256	8.38
404.384	16.38
404.511	19.38
404.639	5.38
404.767	2.38
404.894	8.38
405.022	17.38
405.15	21.38
405.277	-14.62
405.405	7.38
405.533	-1.62
405.66	22.38
405.788	20.38
405.916	-9.62
406.043	-1.62
406.171	10.38
406.299	14.38
406.426	24.38
406.554	15.38
406.681	31.38
406.809	17.38
406.937	24.38
407.064	15.38
407.192	13.38
407.319	10.38
407.447	10.38
407.574	19.38
407.702	13.38
407.83	4.38
407.957	-1.62
408.085	4.38
408.212	7.38
408.34	16.38
408.467	8.38
408.595	16.38
408.722	26.38
408.85	23.38
408.977	4.38
409.105	11.38
409.232	8.38
409.36	2.38
409.487	13.38
409.615	11.38
409.742	21.38
409.87	19.38
409.997	37.38
410.125	27.38
410.252	49.38
410.379	55.38
410.507	25.38
410.634	23.38
410.762	8.38
410.889	20.38
411.017	11.38
411.144	24.38
411.271	17.38
411.399	23.38
411.526	19.38
411.653	24.38
411.781	36.38
411.908	4.38
412.036	-12.62
412.163	29.38
412.29	14.38
412.418	19.38
412.545	14.38
412.672	9.38
412.8	27.38
412.927	15.38
413.054	26.38
413.182	21.38
413.309	-0.62
413.436	1.38
413.564	6.38
413.691	18.38
413.818	23.38
413.945	-0.62
414.073	7.38
414.2	18.38
414.327	24.38
414.454	4.38
414.582	-11.62
414.709	-9.62
414.836	17.38
414.963	6.38
415.091	19.38
415.218	3.38
415.345	15.38
415.472	16.38
415.6	-5.62
415.727	11.38
415.854	18.38
415.981	9.38
416.108	5.38
416.236	-5.62
416.363	26.38
416.49	0.38
416.617	13.38
416.744	6.38
416.871	5.38
416.998	-6.62
417.126	28.38
417.253	23.38
417.38	-2.62
417.507	-10.62
417.634	30.38
417.761	10.38
417.888	15.38
418.015	11.38
418.143	12.38
418.27	32.38
418.397	14.38
418.524	4.38
418.651	17.38
418.778	13.38
418.905	28.38
419.032	15.38
419.159	12.38
419.286	31.38
419.413	2.38
419.54	20.38
419.667	17.38
419.794	9.38
419.921	7.38
420.048	28.38
420.175	11.38
420.302	10.38
420.429	11.38
420.556	5.38
