Data from LowRes_H2_15_26_11_07_2024_HR4C61881__33__15-28-16-937.txt Node

Date: Thu Nov 07 15:28:16 EST 2024
User: crc00042
Spectrometer: HR4C6188
Trigger mode: 4
Integration Time (sec): 1.000000E-1
Scans to average: 1
Electric dark correction enabled: true
Nonlinearity correction enabled: false
Boxcar width: 0
XAxis mode: Wavelengths
Number of Pixels in Spectrum: 3648
>>>>>Begin Spectral Data<<<<<
245.66	-107.69
245.797	-107.69
245.934	-107.69
246.071	-77.69
246.208	5.31
246.344	-1.69
246.481	-23.69
246.618	-15.69
246.755	17.31
246.892	8.31
247.029	-3.69
247.165	4.31
247.302	0.31
247.439	6.31
247.576	-6.69
247.713	-11.69
247.849	33.31
247.986	-6.69
248.123	10.31
248.26	-14.69
248.396	12.31
248.533	8.31
248.67	-7.69
248.806	3.31
248.943	-19.69
249.08	-6.69
249.216	18.31
249.353	-13.69
249.49	-7.69
249.626	5.31
249.763	-12.69
249.9	-20.69
250.036	0.31
250.173	9.31
250.309	10.31
250.446	16.31
250.582	12.31
250.719	-2.69
250.856	-11.69
250.992	-6.69
251.129	7.31
251.265	6.31
251.402	-5.69
251.538	-10.69
251.675	-14.69
251.811	14.31
251.948	21.31
252.084	5.31
252.221	0.31
252.357	-6.69
252.493	15.31
252.63	3.31
252.766	27.31
252.903	-0.69
253.039	-1.69
253.175	0.31
253.312	3.31
253.448	15.31
253.585	-7.69
253.721	8.31
253.857	-13.69
253.994	3.31
254.13	10.31
254.266	21.31
254.403	11.31
254.539	19.31
254.675	18.31
254.811	13.31
254.948	-21.69
255.084	-13.69
255.22	-18.69
255.356	7.31
255.493	24.31
255.629	19.31
255.765	2.31
255.901	16.31
256.037	5.31
256.174	13.31
256.31	-2.69
256.446	3.31
256.582	-6.69
256.718	5.31
256.854	10.31
256.991	16.31
257.127	18.31
257.263	2.31
257.399	1.31
257.535	-7.69
257.671	-6.69
257.807	-6.69
257.943	-17.69
258.079	-9.69
258.215	-24.69
258.351	-0.69
258.487	-9.69
258.623	12.31
258.759	1.31
258.895	5.31
259.031	-1.69
259.167	-33.69
259.303	-10.69
259.439	-10.69
259.575	-7.69
259.711	2.31
259.847	-7.69
259.983	10.31
260.119	-6.69
260.255	16.31
260.391	15.31
260.527	-2.69
260.663	23.31
260.799	0.31
260.934	-12.69
261.07	1.31
261.206	-18.69
261.342	-3.69
261.478	15.31
261.614	10.31
261.749	-4.69
261.885	-4.69
262.021	2.31
262.157	4.31
262.293	1.31
262.428	-11.69
262.564	2.31
262.7	5.31
262.836	0.31
262.971	33.31
263.107	9.31
263.243	20.31
263.378	-10.69
263.514	-8.69
263.65	-1.69
263.785	-12.69
263.921	-3.69
264.057	-7.69
264.192	1.31
264.328	3.31
264.464	-12.69
264.599	8.31
264.735	17.31
264.871	-7.69
265.006	2.31
265.142	-8.69
265.277	4.31
265.413	17.31
265.548	28.31
265.684	-1.69
265.819	7.31
265.955	-18.69
266.091	-19.69
266.226	-13.69
266.362	-11.69
266.497	7.31
266.633	4.31
266.768	-12.69
266.903	9.31
267.039	3.31
267.174	19.31
267.31	1.31
267.445	-0.69
267.581	18.31
267.716	6.31
267.851	-1.69
267.987	33.31
268.122	36.31
268.258	-7.69
268.393	6.31
268.528	2.31
268.664	-7.69
268.799	1.31
268.934	-1.69
269.07	-7.69
269.205	-5.69
269.34	14.31
269.476	-3.69
269.611	-7.69
269.746	1.31
269.881	-0.69
270.017	25.31
270.152	12.31
270.287	7.31
270.422	12.31
270.558	-4.69
270.693	7.31
270.828	-3.69
270.963	-7.69
271.098	1.31
271.234	23.31
271.369	17.31
271.504	15.31
271.639	-17.69
271.774	14.31
271.909	17.31
272.045	-21.69
272.18	-6.69
272.315	9.31
272.45	13.31
272.585	-18.69
272.72	2.31
272.855	-8.69
272.99	12.31
273.125	-10.69
273.26	0.31
273.395	-0.69
273.53	-7.69
273.665	9.31
273.8	-1.69
273.935	4.31
274.07	-1.69
274.205	10.31
274.34	-2.69
274.475	-7.69
274.61	28.31
274.745	8.31
274.88	19.31
275.015	-3.69
275.15	1.31
275.285	5.31
275.42	-4.69
275.555	21.31
275.69	17.31
275.825	-9.69
275.959	24.31
276.094	0.31
276.229	-0.69
276.364	-5.69
276.499	3.31
276.634	-17.69
276.768	2.31
276.903	-9.69
277.038	2.31
277.173	6.31
277.308	5.31
277.442	-6.69
277.577	-4.69
277.712	7.31
277.847	2.31
277.981	12.31
278.116	-29.69
278.251	20.31
278.386	27.31
278.52	5.31
278.655	14.31
278.79	19.31
278.924	8.31
279.059	-4.69
279.194	-8.69
279.328	27.31
279.463	8.31
279.598	6.31
279.732	18.31
279.867	10.31
280.001	5.31
280.136	2.31
280.271	11.31
280.405	13.31
280.54	-1.69
280.674	-12.69
280.809	8.31
280.943	-8.69
281.078	8.31
281.213	16.31
281.347	15.31
281.482	3.31
281.616	6.31
281.751	5.31
281.885	-6.69
282.02	-3.69
282.154	-4.69
282.288	-8.69
282.423	4.31
282.557	-17.69
282.692	7.31
282.826	8.31
282.961	1.31
283.095	-4.69
283.229	-3.69
283.364	-8.69
283.498	5.31
283.633	2.31
283.767	3.31
283.901	-4.69
284.036	-9.69
284.17	-3.69
284.304	-13.69
284.439	-4.69
284.573	-5.69
284.707	7.31
284.842	7.31
284.976	2.31
285.11	0.31
285.244	15.31
285.379	51.31
285.513	-11.69
285.647	32.31
285.781	-2.69
285.916	8.31
286.05	3.31
286.184	35.31
286.318	10.31
286.453	-17.69
286.587	-11.69
286.721	-18.69
286.855	8.31
286.989	12.31
287.123	2.31
287.258	-8.69
287.392	-1.69
287.526	0.31
287.66	21.31
287.794	7.31
287.928	-7.69
288.062	11.31
288.196	7.31
288.33	-2.69
288.464	12.31
288.598	22.31
288.733	18.31
288.867	3.31
289.001	7.31
289.135	1.31
289.269	3.31
289.403	10.31
289.537	1.31
289.671	16.31
289.805	-13.69
289.939	-0.69
290.073	11.31
290.207	18.31
290.34	-15.69
290.474	9.31
290.608	9.31
290.742	8.31
290.876	-4.69
291.01	2.31
291.144	27.31
291.278	-1.69
291.412	20.31
291.546	4.31
291.679	-21.69
291.813	-13.69
291.947	-2.69
292.081	-2.69
292.215	11.31
292.349	10.31
292.482	4.31
292.616	2.31
292.75	1.31
292.884	18.31
293.018	9.31
293.151	-4.69
293.285	26.31
293.419	6.31
293.553	-3.69
293.686	2.31
293.82	4.31
293.954	18.31
294.088	12.31
294.221	3.31
294.355	-5.69
294.489	15.31
294.622	-5.69
294.756	0.31
294.89	14.31
295.023	28.31
295.157	16.31
295.291	8.31
295.424	17.31
295.558	11.31
295.691	3.31
295.825	1.31
295.959	1.31
296.092	12.31
296.226	15.31
296.359	4.31
296.493	12.31
296.627	10.31
296.76	-11.69
296.894	-2.69
297.027	2.31
297.161	-18.69
297.294	-27.69
297.428	-10.69
297.561	33.31
297.695	-5.69
297.828	-1.69
297.962	-7.69
298.095	-5.69
298.229	16.31
298.362	5.31
298.495	-9.69
298.629	-19.69
298.762	-10.69
298.896	16.31
299.029	-1.69
299.162	-4.69
299.296	11.31
299.429	4.31
299.563	16.31
299.696	5.31
299.829	15.31
299.963	13.31
300.096	23.31
300.229	16.31
300.363	-0.69
300.496	13.31
300.629	-15.69
300.763	-4.69
300.896	3.31
301.029	4.31
301.162	-1.69
301.296	-6.69
301.429	16.31
301.562	-21.69
301.695	-0.69
301.829	-4.69
301.962	4.31
302.095	2.31
302.228	-23.69
302.362	21.31
302.495	-8.69
302.628	13.31
302.761	-1.69
302.894	24.31
303.027	25.31
303.161	-13.69
303.294	-19.69
303.427	19.31
303.56	-5.69
303.693	-10.69
303.826	7.31
303.959	-5.69
304.092	-1.69
304.225	2.31
304.359	2.31
304.492	15.31
304.625	-13.69
304.758	8.31
304.891	-5.69
305.024	-5.69
305.157	-13.69
305.29	-0.69
305.423	-11.69
305.556	4.31
305.689	26.31
305.822	-3.69
305.955	3.31
306.088	-12.69
306.221	-3.69
306.354	-2.69
306.487	-14.69
306.62	-10.69
306.752	-7.69
306.885	0.31
307.018	-10.69
307.151	19.31
307.284	9.31
307.417	-20.69
307.55	14.31
307.683	5.31
307.816	14.31
307.948	-2.69
308.081	22.31
308.214	22.31
308.347	26.31
308.48	-0.69
308.613	-22.69
308.745	8.31
308.878	10.31
309.011	10.31
309.144	-0.69
309.277	-3.69
309.409	24.31
309.542	9.31
309.675	5.31
309.808	17.31
309.94	25.31
310.073	0.31
310.206	-13.69
310.339	4.31
310.471	-9.69
310.604	24.31
310.737	-5.69
310.869	9.31
311.002	-4.69
311.135	-5.69
311.267	-13.69
311.4	-8.69
311.533	18.31
311.665	0.31
311.798	-0.69
311.93	15.31
312.063	19.31
312.196	17.31
312.328	10.31
312.461	1.31
312.593	4.31
312.726	6.31
312.859	20.31
312.991	14.31
313.124	-8.69
313.256	10.31
313.389	11.31
313.521	9.31
313.654	-15.69
313.786	-10.69
313.919	-3.69
314.051	-14.69
314.184	18.31
314.316	8.31
314.449	-10.69
314.581	-5.69
314.714	-12.69
314.846	11.31
314.978	-10.69
315.111	-8.69
315.243	22.31
315.376	13.31
315.508	7.31
315.641	9.31
315.773	28.31
315.905	6.31
316.038	11.31
316.17	11.31
316.302	4.31
316.435	3.31
316.567	-6.69
316.699	34.31
316.832	-6.69
316.964	-11.69
317.096	-2.69
317.229	6.31
317.361	-7.69
317.493	-7.69
317.625	-18.69
317.758	20.31
317.89	13.31
318.022	11.31
318.155	-9.69
318.287	11.31
318.419	8.31
318.551	-22.69
318.683	2.31
318.816	-6.69
318.948	4.31
319.08	-0.69
319.212	8.31
319.344	26.31
319.477	-2.69
319.609	0.31
319.741	28.31
319.873	-1.69
320.005	-1.69
320.137	9.31
320.269	28.31
320.401	16.31
320.534	4.31
320.666	-17.69
320.798	-17.69
320.93	-16.69
321.062	-18.69
321.194	-14.69
321.326	-3.69
321.458	-0.69
321.59	2.31
321.722	-12.69
321.854	-3.69
321.986	2.31
322.118	20.31
322.25	-14.69
322.382	-4.69
322.514	-8.69
322.646	-18.69
322.778	25.31
322.91	-16.69
323.042	-1.69
323.174	4.31
323.306	-7.69
323.438	0.31
323.57	3.31
323.702	-1.69
323.834	5.31
323.966	-11.69
324.097	4.31
324.229	24.31
324.361	28.31
324.493	13.31
324.625	4.31
324.757	16.31
324.889	-4.69
325.021	1.31
325.152	16.31
325.284	16.31
325.416	-9.69
325.548	4.31
325.68	-2.69
325.811	36.31
325.943	9.31
326.075	0.31
326.207	7.31
326.339	-0.69
326.47	-13.69
326.602	-9.69
326.734	3.31
326.866	5.31
326.997	-15.69
327.129	1.31
327.261	-15.69
327.392	-4.69
327.524	4.31
327.656	14.31
327.787	20.31
327.919	-0.69
328.051	-0.69
328.182	20.31
328.314	26.31
328.446	-3.69
328.577	21.31
328.709	23.31
328.841	-7.69
328.972	-12.69
329.104	-4.69
329.235	-1.69
329.367	-2.69
329.499	11.31
329.63	-2.69
329.762	-1.69
329.893	6.31
330.025	2.31
330.156	-3.69
330.288	13.31
330.419	14.31
330.551	6.31
330.683	8.31
330.814	5.31
330.946	16.31
331.077	-9.69
331.208	-13.69
331.34	2.31
331.471	0.31
331.603	1.31
331.734	-15.69
331.866	-7.69
331.997	8.31
332.129	3.31
332.26	-8.69
332.392	13.31
332.523	1.31
332.654	-18.69
332.786	-19.69
332.917	-13.69
333.048	13.31
333.18	13.31
333.311	-2.69
333.443	-4.69
333.574	-6.69
333.705	17.31
333.837	0.31
333.968	17.31
334.099	18.31
334.231	19.31
334.362	-15.69
334.493	22.31
334.624	13.31
334.756	21.31
334.887	11.31
335.018	9.31
335.15	12.31
335.281	15.31
335.412	14.31
335.543	15.31
335.675	1.31
335.806	-1.69
335.937	6.31
336.068	5.31
336.199	41.31
336.331	22.31
336.462	8.31
336.593	22.31
336.724	1.31
336.855	7.31
336.986	9.31
337.118	9.31
337.249	2.31
337.38	12.31
337.511	2.31
337.642	14.31
337.773	-8.69
337.904	2.31
338.035	4.31
338.166	13.31
338.298	41.31
338.429	6.31
338.56	12.31
338.691	20.31
338.822	1.31
338.953	2.31
339.084	5.31
339.215	5.31
339.346	1.31
339.477	13.31
339.608	16.31
339.739	-5.69
339.87	26.31
340.001	-5.69
340.132	25.31
340.263	7.31
340.394	12.31
340.525	1.31
340.656	-2.69
340.787	-13.69
340.918	18.31
341.049	6.31
341.179	-1.69
341.31	11.31
341.441	-11.69
341.572	15.31
341.703	-3.69
341.834	-31.69
341.965	-3.69
342.096	8.31
342.227	21.31
342.357	11.31
342.488	10.31
342.619	14.31
342.75	-0.69
342.881	-7.69
343.012	10.31
343.142	16.31
343.273	-10.69
343.404	9.31
343.535	30.31
343.666	5.31
343.796	20.31
343.927	13.31
344.058	14.31
344.189	4.31
344.319	8.31
344.45	-3.69
344.581	1.31
344.712	-29.69
344.842	-8.69
344.973	-3.69
345.104	18.31
345.234	-5.69
345.365	3.31
345.496	12.31
345.626	22.31
345.757	28.31
345.888	-7.69
346.018	28.31
346.149	8.31
346.28	31.31
346.41	-15.69
346.541	18.31
346.672	9.31
346.802	23.31
346.933	10.31
347.063	3.31
347.194	-19.69
347.325	-1.69
347.455	3.31
347.586	2.31
347.716	6.31
347.847	21.31
347.977	8.31
348.108	12.31
348.238	0.31
348.369	22.31
348.499	26.31
348.63	4.31
348.76	-0.69
348.891	3.31
349.021	14.31
349.152	5.31
349.282	5.31
349.413	-9.69
349.543	-0.69
349.674	23.31
349.804	2.31
349.935	-14.69
350.065	3.31
350.196	11.31
350.326	4.31
350.456	-4.69
350.587	23.31
350.717	8.31
350.848	1.31
350.978	2.31
351.108	-6.69
351.239	14.31
351.369	5.31
351.499	-0.69
351.63	14.31
351.76	15.31
351.89	-5.69
352.021	5.31
352.151	-18.69
352.281	4.31
352.412	8.31
352.542	13.31
352.672	2.31
352.803	6.31
352.933	10.31
353.063	17.31
353.193	9.31
353.324	2.31
353.454	22.31
353.584	6.31
353.714	-6.69
353.845	11.31
353.975	6.31
354.105	9.31
354.235	10.31
354.365	-5.69
354.496	3.31
354.626	14.31
354.756	9.31
354.886	14.31
355.016	-3.69
355.146	6.31
355.277	14.31
355.407	11.31
355.537	-10.69
355.667	1.31
355.797	-19.69
355.927	-3.69
356.057	20.31
356.187	4.31
356.318	-3.69
356.448	14.31
356.578	21.31
356.708	13.31
356.838	1.31
356.968	2.31
357.098	21.31
357.228	9.31
357.358	-13.69
357.488	0.31
357.618	16.31
357.748	23.31
357.878	23.31
358.008	6.31
358.138	3.31
358.268	-5.69
358.398	1.31
358.528	-3.69
358.658	13.31
358.788	8.31
358.918	2.31
359.048	8.31
359.178	30.31
359.308	7.31
359.438	28.31
359.568	18.31
359.698	9.31
359.827	-9.69
359.957	13.31
360.087	5.31
360.217	1.31
360.347	4.31
360.477	16.31
360.607	-1.69
360.737	-1.69
360.866	10.31
360.996	4.31
361.126	-7.69
361.256	18.31
361.386	22.31
361.516	42.31
361.645	-12.69
361.775	7.31
361.905	-13.69
362.035	2.31
362.165	-1.69
362.294	12.31
362.424	21.31
362.554	12.31
362.684	6.31
362.813	4.31
362.943	0.31
363.073	-3.69
363.203	1.31
363.332	2.31
363.462	-25.69
363.592	22.31
363.721	25.31
363.851	4.31
363.981	4.31
364.111	-6.69
364.24	-10.69
364.37	5.31
364.5	16.31
364.629	7.31
364.759	-5.69
364.888	-2.69
365.018	-8.69
365.148	9.31
365.277	17.31
365.407	-5.69
365.537	17.31
365.666	-1.69
365.796	-6.69
365.925	-6.69
366.055	-2.69
366.184	1.31
366.314	19.31
366.444	-10.69
366.573	7.31
366.703	-7.69
366.832	8.31
366.962	17.31
367.091	33.31
367.221	22.31
367.35	21.31
367.48	31.31
367.609	0.31
367.739	2.31
367.868	0.31
367.998	-1.69
368.127	16.31
368.257	8.31
368.386	19.31
368.516	13.31
368.645	6.31
368.775	3.31
368.904	4.31
369.033	-3.69
369.163	-2.69
369.292	27.31
369.422	5.31
369.551	17.31
369.68	16.31
369.81	8.31
369.939	-3.69
370.069	26.31
370.198	16.31
370.327	-3.69
370.457	-1.69
370.586	4.31
370.715	5.31
370.845	-13.69
370.974	3.31
371.103	19.31
371.233	20.31
371.362	14.31
371.491	-10.69
371.621	26.31
371.75	-5.69
371.879	-5.69
372.008	-0.69
372.138	26.31
372.267	12.31
372.396	-2.69
372.525	6.31
372.655	11.31
372.784	3.31
372.913	1.31
373.042	12.31
373.172	26.31
373.301	-6.69
373.43	-15.69
373.559	4.31
373.688	17.31
373.818	38.31
373.947	33.31
374.076	-6.69
374.205	8.31
374.334	3.31
374.463	3.31
374.593	10.31
374.722	-0.69
374.851	16.31
374.98	0.31
375.109	-9.69
375.238	8.31
375.367	31.31
375.496	-12.69
375.625	-17.69
375.755	13.31
375.884	9.31
376.013	15.31
376.142	2.31
376.271	-10.69
376.4	8.31
376.529	2.31
376.658	28.31
376.787	4.31
376.916	11.31
377.045	-7.69
377.174	7.31
377.303	15.31
377.432	32.31
377.561	6.31
377.69	-11.69
377.819	16.31
377.948	4.31
378.077	1.31
378.206	-2.69
378.335	-1.69
378.464	4.31
378.593	16.31
378.722	-6.69
378.851	13.31
378.98	23.31
379.108	-8.69
379.237	-21.69
379.366	5.31
379.495	24.31
379.624	19.31
379.753	19.31
379.882	1.31
380.011	16.31
380.14	12.31
380.268	17.31
380.397	-14.69
380.526	23.31
380.655	-2.69
380.784	-14.69
380.913	1.31
381.041	2.31
381.17	-13.69
381.299	-1.69
381.428	11.31
381.557	7.31
381.685	-10.69
381.814	10.31
381.943	-1.69
382.072	-15.69
382.2	-1.69
382.329	18.31
382.458	8.31
382.587	32.31
382.715	19.31
382.844	26.31
382.973	10.31
383.102	13.31
383.23	10.31
383.359	-5.69
383.488	6.31
383.616	11.31
383.745	-5.69
383.874	1.31
384.003	7.31
384.131	6.31
384.26	12.31
384.389	9.31
384.517	-10.69
384.646	-5.69
384.774	-1.69
384.903	31.31
385.032	27.31
385.16	8.31
385.289	15.31
385.418	-15.69
385.546	4.31
385.675	12.31
385.803	4.31
385.932	5.31
386.06	-18.69
386.189	0.31
386.318	9.31
386.446	11.31
386.575	15.31
386.703	7.31
386.832	3.31
386.96	-24.69
387.089	25.31
387.217	-2.69
387.346	-7.69
387.474	16.31
387.603	7.31
387.731	8.31
387.86	4.31
387.988	9.31
388.117	19.31
388.245	22.31
388.374	8.31
388.502	1.31
388.631	-6.69
388.759	-5.69
388.888	7.31
389.016	9.31
389.144	-3.69
389.273	0.31
389.401	-9.69
389.53	-14.69
389.658	-0.69
389.786	1.31
389.915	5.31
390.043	2.31
390.172	1.31
390.3	18.31
390.428	23.31
390.557	-11.69
390.685	14.31
390.813	6.31
390.942	9.31
391.07	-9.69
391.198	-7.69
391.327	10.31
391.455	-12.69
391.583	6.31
391.712	4.31
391.84	7.31
391.968	-9.69
392.096	1.31
392.225	2.31
392.353	6.31
392.481	4.31
392.609	17.31
392.738	17.31
392.866	22.31
392.994	-4.69
393.122	21.31
393.251	5.31
393.379	-1.69
393.507	0.31
393.635	-13.69
393.764	4.31
393.892	20.31
394.02	-7.69
394.148	5.31
394.276	0.31
394.404	16.31
394.533	12.31
394.661	-3.69
394.789	14.31
394.917	24.31
395.045	-4.69
395.173	-9.69
395.302	22.31
395.43	0.31
395.558	8.31
395.686	11.31
395.814	18.31
395.942	-5.69
396.07	-7.69
396.198	-2.69
396.326	13.31
396.454	17.31
396.582	14.31
396.711	6.31
396.839	8.31
396.967	21.31
397.095	22.31
397.223	26.31
397.351	25.31
397.479	20.31
397.607	14.31
397.735	5.31
397.863	18.31
397.991	13.31
398.119	-10.69
398.247	-3.69
398.375	-10.69
398.503	10.31
398.631	1.31
398.759	2.31
398.887	17.31
399.015	-9.69
399.143	2.31
399.271	9.31
399.399	0.31
399.526	-5.69
399.654	11.31
399.782	-1.69
399.91	28.31
400.038	29.31
400.166	8.31
400.294	5.31
400.422	-1.69
400.55	12.31
400.678	3.31
400.805	-1.69
400.933	5.31
401.061	13.31
401.189	-0.69
401.317	20.31
401.445	36.31
401.573	30.31
401.7	-7.69
401.828	0.31
401.956	4.31
402.084	2.31
402.212	11.31
402.34	2.31
402.467	2.31
402.595	3.31
402.723	15.31
402.851	37.31
402.978	0.31
403.106	10.31
403.234	13.31
403.362	33.31
403.489	35.31
403.617	8.31
403.745	12.31
403.873	2.31
404	8.31
404.128	-2.69
404.256	11.31
404.384	2.31
404.511	9.31
404.639	8.31
404.767	-3.69
404.894	18.31
405.022	22.31
405.15	17.31
405.277	-10.69
405.405	-7.69
405.533	2.31
405.66	16.31
405.788	-9.69
405.916	-9.69
406.043	-17.69
406.171	-10.69
406.299	4.31
406.426	4.31
406.554	9.31
406.681	8.31
406.809	14.31
406.937	-0.69
407.064	-14.69
407.192	24.31
407.319	11.31
407.447	9.31
407.574	35.31
407.702	24.31
407.83	5.31
407.957	6.31
408.085	10.31
408.212	12.31
408.34	22.31
408.467	10.31
408.595	12.31
408.722	19.31
408.85	17.31
408.977	-0.69
409.105	-0.69
409.232	7.31
409.36	11.31
409.487	1.31
409.615	8.31
409.742	27.31
409.87	24.31
409.997	31.31
410.125	38.31
410.252	57.31
410.379	41.31
410.507	25.31
410.634	16.31
410.762	15.31
410.889	29.31
411.017	17.31
411.144	31.31
411.271	1.31
411.399	9.31
411.526	-0.69
411.653	32.31
411.781	28.31
411.908	16.31
412.036	-10.69
412.163	28.31
412.29	29.31
412.418	17.31
412.545	18.31
412.672	2.31
412.8	26.31
412.927	17.31
413.054	-0.69
413.182	8.31
413.309	22.31
413.436	-1.69
413.564	10.31
413.691	26.31
413.818	22.31
413.945	8.31
414.073	-2.69
414.2	22.31
414.327	11.31
414.454	16.31
414.582	5.31
414.709	-10.69
414.836	6.31
414.963	10.31
415.091	13.31
415.218	0.31
415.345	7.31
415.472	11.31
415.6	-7.69
415.727	9.31
415.854	-1.69
415.981	5.31
416.108	11.31
416.236	19.31
416.363	20.31
416.49	5.31
416.617	3.31
416.744	12.31
416.871	9.31
416.998	2.31
417.126	0.31
417.253	-6.69
417.38	3.31
417.507	8.31
417.634	12.31
417.761	21.31
417.888	3.31
418.015	22.31
418.143	10.31
418.27	38.31
418.397	11.31
418.524	-1.69
418.651	-9.69
418.778	2.31
418.905	25.31
419.032	26.31
419.159	-4.69
419.286	32.31
419.413	18.31
419.54	34.31
419.667	19.31
419.794	1.31
419.921	24.31
420.048	10.31
420.175	8.31
420.302	8.31
420.429	3.31
420.556	-13.69
420.683	3.31
420.81	-6.69
