Data from LowRes_H2_15_26_11_07_2024_HR4C61881__64__15-28-20-037.txt Node

Date: Thu Nov 07 15:28:20 EST 2024
User: crc00042
Spectrometer: HR4C6188
Trigger mode: 4
Integration Time (sec): 1.000000E-1
Scans to average: 1
Electric dark correction enabled: true
Nonlinearity correction enabled: false
Boxcar width: 0
XAxis mode: Wavelengths
Number of Pixels in Spectrum: 3648
>>>>>Begin Spectral Data<<<<<
245.66	-109.54
245.797	-109.54
245.934	-109.54
246.071	-85.54
246.208	-1.54
246.344	1.46
246.481	-10.54
246.618	-9.54
246.755	9.46
246.892	-23.54
247.029	-0.54
247.165	-5.54
247.302	4.46
247.439	2.46
247.576	17.46
247.713	-12.54
247.849	33.46
247.986	-6.54
248.123	-0.54
248.26	3.46
248.396	3.46
248.533	-8.54
248.67	-1.54
248.806	5.46
248.943	-17.54
249.08	-22.54
249.216	13.46
249.353	5.46
249.49	-8.54
249.626	10.46
249.763	6.46
249.9	3.46
250.036	-12.54
250.173	-0.54
250.309	9.46
250.446	6.46
250.582	6.46
250.719	-8.54
250.856	3.46
250.992	-16.54
251.129	-0.54
251.265	-6.54
251.402	21.46
251.538	-0.54
251.675	-6.54
251.811	21.46
251.948	26.46
252.084	7.46
252.221	6.46
252.357	-4.54
252.493	21.46
252.63	-2.54
252.766	12.46
252.903	1.46
253.039	0.46
253.175	-4.54
253.312	3.46
253.448	-3.54
253.585	-15.54
253.721	-0.54
253.857	-6.54
253.994	16.46
254.13	0.46
254.266	-0.54
254.403	8.46
254.539	-2.54
254.675	18.46
254.811	-0.54
254.948	-3.54
255.084	-1.54
255.22	-14.54
255.356	-6.54
255.493	4.46
255.629	-0.54
255.765	-9.54
255.901	0.46
256.037	-3.54
256.174	2.46
256.31	-6.54
256.446	-11.54
256.582	0.46
256.718	9.46
256.854	28.46
256.991	22.46
257.127	25.46
257.263	-5.54
257.399	8.46
257.535	-10.54
257.671	-1.54
257.807	-4.54
257.943	-17.54
258.079	-12.54
258.215	-8.54
258.351	21.46
258.487	4.46
258.623	10.46
258.759	0.46
258.895	7.46
259.031	-7.54
259.167	-6.54
259.303	20.46
259.439	-27.54
259.575	-0.54
259.711	-11.54
259.847	-9.54
259.983	14.46
260.119	-7.54
260.255	-14.54
260.391	17.46
260.527	3.46
260.663	31.46
260.799	-0.54
260.934	-4.54
261.07	-3.54
261.206	-19.54
261.342	-11.54
261.478	18.46
261.614	10.46
261.749	-6.54
261.885	-6.54
262.021	-11.54
262.157	13.46
262.293	9.46
262.428	3.46
262.564	-1.54
262.7	3.46
262.836	9.46
262.971	20.46
263.107	-0.54
263.243	3.46
263.378	-2.54
263.514	-22.54
263.65	2.46
263.785	-14.54
263.921	-17.54
264.057	4.46
264.192	9.46
264.328	25.46
264.464	-3.54
264.599	13.46
264.735	33.46
264.871	-15.54
265.006	23.46
265.142	5.46
265.277	8.46
265.413	12.46
265.548	17.46
265.684	-3.54
265.819	-3.54
265.955	-14.54
266.091	-0.54
266.226	-12.54
266.362	9.46
266.497	0.46
266.633	-0.54
266.768	-27.54
266.903	5.46
267.039	13.46
267.174	26.46
267.31	-11.54
267.445	-19.54
267.581	10.46
267.716	18.46
267.851	19.46
267.987	11.46
268.122	11.46
268.258	-3.54
268.393	-2.54
268.528	15.46
268.664	-0.54
268.799	-15.54
268.934	10.46
269.07	1.46
269.205	5.46
269.34	3.46
269.476	14.46
269.611	-10.54
269.746	18.46
269.881	6.46
270.017	-5.54
270.152	-4.54
270.287	18.46
270.422	16.46
270.558	-12.54
270.693	7.46
270.828	-6.54
270.963	-2.54
271.098	-3.54
271.234	-8.54
271.369	15.46
271.504	-3.54
271.639	-11.54
271.774	3.46
271.909	3.46
272.045	-7.54
272.18	-11.54
272.315	-7.54
272.45	11.46
272.585	-1.54
272.72	0.46
272.855	-6.54
272.99	8.46
273.125	-12.54
273.26	-12.54
273.395	0.46
273.53	-8.54
273.665	12.46
273.8	2.46
273.935	-11.54
274.07	-0.54
274.205	17.46
274.34	-14.54
274.475	-1.54
274.61	11.46
274.745	2.46
274.88	20.46
275.015	-15.54
275.15	-4.54
275.285	-0.54
275.42	6.46
275.555	7.46
275.69	-0.54
275.825	12.46
275.959	15.46
276.094	-10.54
276.229	-2.54
276.364	1.46
276.499	14.46
276.634	4.46
276.768	5.46
276.903	8.46
277.038	7.46
277.173	3.46
277.308	-10.54
277.442	14.46
277.577	-3.54
277.712	-2.54
277.847	9.46
277.981	-5.54
278.116	-17.54
278.251	5.46
278.386	3.46
278.52	8.46
278.655	5.46
278.79	16.46
278.924	-11.54
279.059	14.46
279.194	-3.54
279.328	24.46
279.463	3.46
279.598	20.46
279.732	27.46
279.867	6.46
280.001	19.46
280.136	-1.54
280.271	7.46
280.405	3.46
280.54	3.46
280.674	-14.54
280.809	15.46
280.943	7.46
281.078	10.46
281.213	19.46
281.347	8.46
281.482	5.46
281.616	-16.54
281.751	2.46
281.885	-17.54
282.02	8.46
282.154	4.46
282.288	0.46
282.423	-0.54
282.557	-14.54
282.692	-12.54
282.826	-3.54
282.961	9.46
283.095	-19.54
283.229	18.46
283.364	-2.54
283.498	6.46
283.633	35.46
283.767	12.46
283.901	-5.54
284.036	-16.54
284.17	-13.54
284.304	-8.54
284.439	5.46
284.573	-14.54
284.707	9.46
284.842	-23.54
284.976	-11.54
285.11	-13.54
285.244	16.46
285.379	55.46
285.513	1.46
285.647	9.46
285.781	-7.54
285.916	27.46
286.05	1.46
286.184	22.46
286.318	19.46
286.453	-0.54
286.587	-11.54
286.721	-2.54
286.855	16.46
286.989	16.46
287.123	3.46
287.258	-7.54
287.392	-6.54
287.526	8.46
287.66	13.46
287.794	35.46
287.928	18.46
288.062	-1.54
288.196	-10.54
288.33	2.46
288.464	8.46
288.598	13.46
288.733	0.46
288.867	9.46
289.001	-0.54
289.135	-12.54
289.269	-11.54
289.403	-0.54
289.537	9.46
289.671	8.46
289.805	-6.54
289.939	1.46
290.073	2.46
290.207	6.46
290.34	5.46
290.474	24.46
290.608	14.46
290.742	-9.54
290.876	1.46
291.01	10.46
291.144	4.46
291.278	24.46
291.412	17.46
291.546	6.46
291.679	-12.54
291.813	17.46
291.947	19.46
292.081	4.46
292.215	-1.54
292.349	15.46
292.482	3.46
292.616	-7.54
292.75	-7.54
292.884	-8.54
293.018	19.46
293.151	-6.54
293.285	3.46
293.419	6.46
293.553	8.46
293.686	-5.54
293.82	1.46
293.954	22.46
294.088	12.46
294.221	4.46
294.355	16.46
294.489	6.46
294.622	-17.54
294.756	-3.54
294.89	9.46
295.023	0.46
295.157	-7.54
295.291	18.46
295.424	19.46
295.558	2.46
295.691	-0.54
295.825	-1.54
295.959	-1.54
296.092	-2.54
296.226	7.46
296.359	7.46
296.493	-10.54
296.627	3.46
296.76	-8.54
296.894	-1.54
297.027	-6.54
297.161	10.46
297.294	-12.54
297.428	10.46
297.561	32.46
297.695	-5.54
297.828	4.46
297.962	-3.54
298.095	-3.54
298.229	-3.54
298.362	-5.54
298.495	-12.54
298.629	-4.54
298.762	10.46
298.896	-1.54
299.029	3.46
299.162	18.46
299.296	-3.54
299.429	-15.54
299.563	11.46
299.696	5.46
299.829	0.46
299.963	-2.54
300.096	-2.54
300.229	31.46
300.363	20.46
300.496	4.46
300.629	-29.54
300.763	-18.54
300.896	-7.54
301.029	10.46
301.162	11.46
301.296	-3.54
301.429	15.46
301.562	-6.54
301.695	13.46
301.829	18.46
301.962	11.46
302.095	-7.54
302.228	-19.54
302.362	3.46
302.495	-15.54
302.628	-2.54
302.761	2.46
302.894	8.46
303.027	17.46
303.161	-12.54
303.294	-15.54
303.427	7.46
303.56	-15.54
303.693	-4.54
303.826	-2.54
303.959	-9.54
304.092	-7.54
304.225	-16.54
304.359	17.46
304.492	7.46
304.625	-1.54
304.758	10.46
304.891	-12.54
305.024	-0.54
305.157	-4.54
305.29	10.46
305.423	2.46
305.556	8.46
305.689	27.46
305.822	-13.54
305.955	10.46
306.088	10.46
306.221	8.46
306.354	12.46
306.487	-6.54
306.62	-6.54
306.752	1.46
306.885	11.46
307.018	-4.54
307.151	17.46
307.284	19.46
307.417	-10.54
307.55	7.46
307.683	-7.54
307.816	10.46
307.948	-11.54
308.081	13.46
308.214	22.46
308.347	21.46
308.48	-12.54
308.613	-0.54
308.745	3.46
308.878	-4.54
309.011	-20.54
309.144	-8.54
309.277	-2.54
309.409	11.46
309.542	-10.54
309.675	17.46
309.808	5.46
309.94	18.46
310.073	-11.54
310.206	-17.54
310.339	2.46
310.471	-11.54
310.604	33.46
310.737	4.46
310.869	-20.54
311.002	2.46
311.135	0.46
311.267	-23.54
311.4	-0.54
311.533	6.46
311.665	7.46
311.798	0.46
311.93	3.46
312.063	8.46
312.196	-15.54
312.328	-12.54
312.461	-8.54
312.593	11.46
312.726	11.46
312.859	0.46
312.991	4.46
313.124	-11.54
313.256	13.46
313.389	9.46
313.521	-7.54
313.654	-2.54
313.786	-13.54
313.919	1.46
314.051	-3.54
314.184	7.46
314.316	6.46
314.449	-21.54
314.581	-14.54
314.714	-12.54
314.846	-7.54
314.978	-12.54
315.111	-6.54
315.243	-11.54
315.376	1.46
315.508	3.46
315.641	-5.54
315.773	25.46
315.905	10.46
316.038	-20.54
316.17	7.46
316.302	10.46
316.435	16.46
316.567	-4.54
316.699	16.46
316.832	-3.54
316.964	-7.54
317.096	-10.54
317.229	-15.54
317.361	-21.54
317.493	-21.54
317.625	-13.54
317.758	3.46
317.89	20.46
318.022	-3.54
318.155	-21.54
318.287	4.46
318.419	8.46
318.551	10.46
318.683	-10.54
318.816	-9.54
318.948	2.46
319.08	-12.54
319.212	2.46
319.344	9.46
319.477	6.46
319.609	6.46
319.741	15.46
319.873	18.46
320.005	21.46
320.137	9.46
320.269	2.46
320.401	-14.54
320.534	1.46
320.666	-16.54
320.798	-8.54
320.93	-3.54
321.062	-25.54
321.194	-5.54
321.326	7.46
321.458	14.46
321.59	14.46
321.722	-9.54
321.854	-8.54
321.986	2.46
322.118	-0.54
322.25	-13.54
322.382	-12.54
322.514	-0.54
322.646	-3.54
322.778	8.46
322.91	-2.54
323.042	-13.54
323.174	-6.54
323.306	-11.54
323.438	-16.54
323.57	-1.54
323.702	4.46
323.834	8.46
323.966	-19.54
324.097	-7.54
324.229	-4.54
324.361	11.46
324.493	2.46
324.625	-5.54
324.757	9.46
324.889	-2.54
325.021	30.46
325.152	22.46
325.284	11.46
325.416	-4.54
325.548	13.46
325.68	-13.54
325.811	21.46
325.943	8.46
326.075	4.46
326.207	5.46
326.339	9.46
326.47	-6.54
326.602	34.46
326.734	2.46
326.866	8.46
326.997	-21.54
327.129	-19.54
327.261	-12.54
327.392	-9.54
327.524	1.46
327.656	-0.54
327.787	1.46
327.919	19.46
328.051	8.46
328.182	30.46
328.314	35.46
328.446	6.46
328.577	8.46
328.709	10.46
328.841	-5.54
328.972	-10.54
329.104	0.46
329.235	-7.54
329.367	-2.54
329.499	-2.54
329.63	10.46
329.762	-3.54
329.893	9.46
330.025	-3.54
330.156	-21.54
330.288	3.46
330.419	-1.54
330.551	18.46
330.683	-8.54
330.814	-27.54
330.946	16.46
331.077	-6.54
331.208	-5.54
331.34	2.46
331.471	-13.54
331.603	-4.54
331.734	-28.54
331.866	0.46
331.997	15.46
332.129	3.46
332.26	-14.54
332.392	8.46
332.523	-6.54
332.654	0.46
332.786	-6.54
332.917	-13.54
333.048	6.46
333.18	35.46
333.311	-14.54
333.443	9.46
333.574	13.46
333.705	21.46
333.837	-10.54
333.968	-2.54
334.099	28.46
334.231	25.46
334.362	-15.54
334.493	2.46
334.624	20.46
334.756	18.46
334.887	-4.54
335.018	-12.54
335.15	17.46
335.281	0.46
335.412	14.46
335.543	4.46
335.675	1.46
335.806	19.46
335.937	7.46
336.068	8.46
336.199	37.46
336.331	10.46
336.462	5.46
336.593	26.46
336.724	5.46
336.855	19.46
336.986	14.46
337.118	9.46
337.249	21.46
337.38	-0.54
337.511	13.46
337.642	-0.54
337.773	-2.54
337.904	8.46
338.035	14.46
338.166	-3.54
338.298	13.46
338.429	24.46
338.56	8.46
338.691	20.46
338.822	17.46
338.953	17.46
339.084	15.46
339.215	7.46
339.346	-3.54
339.477	-0.54
339.608	6.46
339.739	4.46
339.87	5.46
340.001	-7.54
340.132	10.46
340.263	19.46
340.394	16.46
340.525	-11.54
340.656	-8.54
340.787	-22.54
340.918	10.46
341.049	8.46
341.179	27.46
341.31	13.46
341.441	22.46
341.572	24.46
341.703	13.46
341.834	10.46
341.965	7.46
342.096	4.46
342.227	5.46
342.357	11.46
342.488	15.46
342.619	3.46
342.75	11.46
342.881	0.46
343.012	7.46
343.142	18.46
343.273	-13.54
343.404	15.46
343.535	35.46
343.666	36.46
343.796	13.46
343.927	23.46
344.058	40.46
344.189	9.46
344.319	19.46
344.45	19.46
344.581	11.46
344.712	-6.54
344.842	20.46
344.973	12.46
345.104	4.46
345.234	-8.54
345.365	-3.54
345.496	-2.54
345.626	5.46
345.757	5.46
345.888	-2.54
346.018	6.46
346.149	12.46
346.28	26.46
346.41	-26.54
346.541	15.46
346.672	20.46
346.802	5.46
346.933	29.46
347.063	25.46
347.194	13.46
347.325	-12.54
347.455	18.46
347.586	-10.54
347.716	-11.54
347.847	-8.54
347.977	-7.54
348.108	7.46
348.238	6.46
348.369	-9.54
348.499	6.46
348.63	11.46
348.76	12.46
348.891	13.46
349.021	17.46
349.152	17.46
349.282	1.46
349.413	4.46
349.543	2.46
349.674	-4.54
349.804	2.46
349.935	-22.54
350.065	-5.54
350.196	-7.54
350.326	-7.54
350.456	7.46
350.587	10.46
350.717	-2.54
350.848	14.46
350.978	3.46
351.108	-0.54
351.239	5.46
351.369	11.46
351.499	1.46
351.63	21.46
351.76	3.46
351.89	-2.54
352.021	11.46
352.151	-5.54
352.281	6.46
352.412	17.46
352.542	18.46
352.672	5.46
352.803	-3.54
352.933	25.46
353.063	9.46
353.193	0.46
353.324	8.46
353.454	22.46
353.584	13.46
353.714	-8.54
353.845	7.46
353.975	1.46
354.105	-4.54
354.235	-9.54
354.365	15.46
354.496	6.46
354.626	-4.54
354.756	17.46
354.886	10.46
355.016	12.46
355.146	0.46
355.277	3.46
355.407	0.46
355.537	21.46
355.667	10.46
355.797	-0.54
355.927	-5.54
356.057	12.46
356.187	12.46
356.318	-0.54
356.448	4.46
356.578	8.46
356.708	6.46
356.838	8.46
356.968	-4.54
357.098	5.46
357.228	22.46
357.358	-13.54
357.488	-13.54
357.618	27.46
357.748	18.46
357.878	10.46
358.008	9.46
358.138	8.46
358.268	4.46
358.398	9.46
358.528	-4.54
358.658	11.46
358.788	15.46
358.918	9.46
359.048	-4.54
359.178	1.46
359.308	8.46
359.438	26.46
359.568	12.46
359.698	-9.54
359.827	-3.54
359.957	4.46
360.087	8.46
360.217	12.46
360.347	20.46
360.477	14.46
360.607	6.46
360.737	6.46
360.866	-1.54
360.996	-20.54
361.126	-15.54
361.256	32.46
361.386	39.46
361.516	29.46
361.645	-4.54
361.775	14.46
361.905	-19.54
362.035	9.46
362.165	-12.54
362.294	13.46
362.424	17.46
362.554	21.46
362.684	-12.54
362.813	-4.54
362.943	24.46
363.073	-14.54
363.203	14.46
363.332	2.46
363.462	6.46
363.592	-10.54
363.721	-4.54
363.851	-9.54
363.981	6.46
364.111	13.46
364.24	2.46
364.37	24.46
364.5	7.46
364.629	-3.54
364.759	-21.54
364.888	-18.54
365.018	6.46
365.148	1.46
365.277	13.46
365.407	20.46
365.537	9.46
365.666	13.46
365.796	1.46
365.925	9.46
366.055	9.46
366.184	4.46
366.314	9.46
366.444	10.46
366.573	9.46
366.703	-0.54
366.832	16.46
366.962	20.46
367.091	13.46
367.221	26.46
367.35	0.46
367.48	38.46
367.609	15.46
367.739	0.46
367.868	-8.54
367.998	-5.54
368.127	23.46
368.257	11.46
368.386	29.46
368.516	2.46
368.645	2.46
368.775	19.46
368.904	3.46
369.033	-16.54
369.163	-8.54
369.292	16.46
369.422	25.46
369.551	18.46
369.68	19.46
369.81	4.46
369.939	8.46
370.069	17.46
370.198	5.46
370.327	-13.54
370.457	4.46
370.586	13.46
370.715	1.46
370.845	-6.54
370.974	18.46
371.103	29.46
371.233	11.46
371.362	16.46
371.491	-0.54
371.621	17.46
371.75	8.46
371.879	-16.54
372.008	8.46
372.138	7.46
372.267	19.46
372.396	-0.54
372.525	11.46
372.655	10.46
372.784	6.46
372.913	20.46
373.042	19.46
373.172	14.46
373.301	-3.54
373.43	-1.54
373.559	6.46
373.688	-4.54
373.818	8.46
373.947	20.46
374.076	12.46
374.205	16.46
374.334	1.46
374.463	-15.54
374.593	16.46
374.722	24.46
374.851	30.46
374.98	-12.54
375.109	4.46
375.238	18.46
375.367	15.46
375.496	-21.54
375.625	-10.54
375.755	3.46
375.884	29.46
376.013	17.46
376.142	-25.54
376.271	1.46
376.4	0.46
376.529	13.46
376.658	-0.54
376.787	1.46
376.916	12.46
377.045	5.46
377.174	8.46
377.303	16.46
377.432	35.46
377.561	1.46
377.69	11.46
377.819	20.46
377.948	3.46
378.077	5.46
378.206	-9.54
378.335	-1.54
378.464	1.46
378.593	20.46
378.722	0.46
378.851	11.46
378.98	25.46
379.108	-21.54
379.237	-12.54
379.366	11.46
379.495	3.46
379.624	12.46
379.753	6.46
379.882	-2.54
380.011	-6.54
380.14	4.46
380.268	14.46
380.397	6.46
380.526	34.46
380.655	-18.54
380.784	-10.54
380.913	-5.54
381.041	-0.54
381.17	-0.54
381.299	-0.54
381.428	9.46
381.557	-5.54
381.685	-6.54
381.814	8.46
381.943	10.46
382.072	-3.54
382.2	5.46
382.329	14.46
382.458	15.46
382.587	22.46
382.715	31.46
382.844	17.46
382.973	-6.54
383.102	3.46
383.23	0.46
383.359	-20.54
383.488	3.46
383.616	7.46
383.745	-8.54
383.874	10.46
384.003	2.46
384.131	-7.54
384.26	-5.54
384.389	7.46
384.517	-9.54
384.646	2.46
384.774	1.46
384.903	15.46
385.032	16.46
385.16	14.46
385.289	-14.54
385.418	10.46
385.546	8.46
385.675	8.46
385.803	1.46
385.932	20.46
386.06	-5.54
386.189	-7.54
386.318	-10.54
386.446	-5.54
386.575	16.46
386.703	9.46
386.832	0.46
386.96	-2.54
387.089	23.46
387.217	10.46
387.346	0.46
387.474	12.46
387.603	7.46
387.731	8.46
387.86	11.46
387.988	-7.54
388.117	1.46
388.245	-0.54
388.374	-2.54
388.502	12.46
388.631	2.46
388.759	6.46
388.888	9.46
389.016	-7.54
389.144	6.46
389.273	5.46
389.401	-2.54
389.53	-4.54
389.658	15.46
389.786	-2.54
389.915	-15.54
390.043	-10.54
390.172	13.46
390.3	26.46
390.428	15.46
390.557	20.46
390.685	18.46
390.813	16.46
390.942	22.46
391.07	-5.54
391.198	4.46
391.327	4.46
391.455	-18.54
391.583	17.46
391.712	16.46
391.84	9.46
391.968	-13.54
392.096	9.46
392.225	1.46
392.353	17.46
392.481	6.46
392.609	12.46
392.738	13.46
392.866	5.46
392.994	19.46
393.122	21.46
393.251	-2.54
393.379	-6.54
393.507	-12.54
393.635	3.46
393.764	11.46
393.892	16.46
394.02	13.46
394.148	1.46
394.276	-4.54
394.404	16.46
394.533	-2.54
394.661	-1.54
394.789	19.46
394.917	19.46
395.045	1.46
395.173	-0.54
395.302	-19.54
395.43	13.46
395.558	26.46
395.686	20.46
395.814	12.46
395.942	10.46
396.07	0.46
396.198	0.46
396.326	-0.54
396.454	-3.54
396.582	24.46
396.711	-4.54
396.839	22.46
396.967	21.46
397.095	13.46
397.223	8.46
397.351	21.46
397.479	8.46
397.607	12.46
397.735	12.46
397.863	15.46
397.991	20.46
398.119	-18.54
398.247	0.46
398.375	1.46
398.503	0.46
398.631	13.46
398.759	-7.54
398.887	20.46
399.015	8.46
399.143	2.46
399.271	1.46
399.399	4.46
399.526	12.46
399.654	25.46
399.782	12.46
399.91	29.46
400.038	34.46
400.166	18.46
400.294	3.46
400.422	-6.54
400.55	5.46
400.678	5.46
400.805	3.46
400.933	3.46
401.061	8.46
401.189	4.46
401.317	28.46
401.445	25.46
401.573	3.46
401.7	-0.54
401.828	-1.54
401.956	-7.54
402.084	10.46
402.212	22.46
402.34	9.46
402.467	6.46
402.595	19.46
402.723	12.46
402.851	25.46
402.978	-10.54
403.106	12.46
403.234	0.46
403.362	24.46
403.489	21.46
403.617	15.46
403.745	18.46
403.873	-6.54
404	17.46
404.128	8.46
404.256	21.46
404.384	31.46
404.511	15.46
404.639	5.46
404.767	-9.54
404.894	15.46
405.022	-0.54
405.15	12.46
405.277	-19.54
405.405	-0.54
405.533	6.46
405.66	-1.54
405.788	-14.54
405.916	-6.54
406.043	5.46
406.171	19.46
406.299	12.46
406.426	0.46
406.554	14.46
406.681	20.46
406.809	8.46
406.937	15.46
407.064	-6.54
407.192	10.46
407.319	17.46
407.447	-0.54
407.574	-7.54
407.702	4.46
407.83	-27.54
407.957	-19.54
408.085	8.46
408.212	3.46
408.34	-5.54
408.467	-20.54
408.595	13.46
408.722	-12.54
408.85	5.46
408.977	-6.54
409.105	7.46
409.232	12.46
409.36	0.46
409.487	11.46
409.615	18.46
409.742	25.46
409.87	32.46
409.997	27.46
410.125	30.46
410.252	57.46
410.379	41.46
410.507	34.46
410.634	13.46
410.762	-5.54
410.889	10.46
411.017	1.46
411.144	9.46
411.271	7.46
411.399	7.46
411.526	10.46
411.653	10.46
411.781	20.46
411.908	13.46
412.036	5.46
412.163	25.46
412.29	9.46
412.418	7.46
412.545	18.46
412.672	10.46
412.8	28.46
412.927	18.46
413.054	11.46
413.182	9.46
413.309	8.46
413.436	3.46
413.564	-10.54
413.691	23.46
413.818	31.46
413.945	-11.54
414.073	13.46
414.2	15.46
414.327	3.46
414.454	7.46
414.582	-13.54
414.709	-11.54
414.836	-3.54
414.963	8.46
415.091	11.46
415.218	-8.54
415.345	11.46
415.472	19.46
415.6	-5.54
415.727	3.46
415.854	-9.54
415.981	-3.54
416.108	0.46
416.236	0.46
416.363	5.46
416.49	0.46
416.617	11.46
416.744	27.46
416.871	14.46
416.998	9.46
417.126	4.46
417.253	-0.54
417.38	15.46
417.507	4.46
417.634	19.46
417.761	32.46
417.888	25.46
418.015	18.46
418.143	7.46
418.27	18.46
418.397	4.46
418.524	9.46
418.651	-1.54
418.778	6.46
418.905	7.46
419.032	6.46
419.159	14.46
419.286	25.46
419.413	20.46
419.54	29.46
419.667	-22.54
419.794	1.46
419.921	7.46
420.048	7.46
420.175	21.46
420.302	0.46
